Time(s),Temperature(°C),(mg)
0,40.100000,-0.000117044
1,40.100000,-7.74909e-07
2,40.100000,-0.000229263
3,40.000000,-0.00018977
4,40.000000,-0.000152239
5,40.000000,-7.9135e-05
6,40.000000,-0.000106339
7,40.000000,1.2903e-05
8,40.000000,7.14946e-05
9,40.000000,0.000149913
10,40.000000,0.000207679
11,40.000000,0.000314143
12,40.000000,0.000527225
13,40.000000,0.000673291
14,40.000000,0.000852445
15,40.000000,0.000964707
16,40.000000,0.00111116
17,40.000000,0.00119674
18,40.000000,0.00125897
19,40.000000,0.00113102
20,40.000000,0.00123699
21,40.000000,0.00141793
22,40.000000,0.00163042
23,40.000000,0.00184023
24,40.000000,0.00205094
25,40.000000,0.00230897
26,40.000000,0.0023915
27,40.000000,0.00247874
28,39.900000,0.00255772
29,39.900000,0.00261979
30,39.900000,0.00265806
31,39.900000,0.00265771
32,39.900000,0.00266379
33,39.900000,0.00268725
34,39.900000,0.00273971
35,39.900000,0.00271955
36,39.900000,0.00271388
37,39.900000,0.0027938
38,39.900000,0.00252801
39,39.900000,0.00224302
40,39.900000,0.00225877
41,39.900000,0.00226836
42,39.900000,0.00228832
43,39.900000,0.00232854
44,39.900000,0.00238543
45,39.900000,0.00246506
46,39.900000,0.00254883
47,39.900000,0.00265383
48,39.900000,0.0027775
49,39.900000,0.0029313
50,39.900000,0.00309477
51,39.900000,0.00329678
52,39.900000,0.00346406
53,39.900000,0.00360468
54,39.900000,0.00361427
55,39.900000,0.00353656
56,39.900000,0.00357612
57,39.900000,-1.27482
58,39.800000,0.00307705
59,39.900000,-1.27255
60,39.900000,0.00388176
61,39.900000,0.00410088
62,39.900000,0.00408207
63,39.900000,0.00443191
64,39.900000,0.00468756
65,39.900000,-1.27402
66,39.800000,0.00462078
67,39.800000,0.00494448
68,39.800000,0.00676196
69,39.800000,0.00698009
70,39.800000,0.00709593
71,39.800000,0.00747025
72,39.800000,-1.26967
73,39.800000,0.00820242
74,39.800000,0.00791485
75,39.800000,0.00797341
76,39.800000,0.00807492
77,39.800000,0.00780474
78,39.800000,0.00709101
79,39.800000,0.00736641
80,39.800000,0.00722652
81,39.800000,0.00768728
82,39.800000,0.00794709
83,39.800000,0.00813069
84,39.800000,0.0082337
85,39.800000,0.00800382
86,39.800000,0.0075982
87,39.800000,0.00760228
88,39.800000,0.00648338
89,39.800000,0.0066107
90,39.800000,0.0067009
91,39.800000,0.00609685
92,39.800000,0.00595141
93,39.800000,0.00587562
94,39.800000,0.00590303
95,39.800000,0.00690305
96,39.800000,0.0063724
97,39.800000,0.00605704
98,39.800000,0.00620345
99,39.800000,0.00624582
100,39.800000,0.0062329
101,39.800000,0.00626209
102,39.800000,0.0063025
103,39.800000,0.00637365
104,39.800000,0.00641884
105,39.800000,0.00648464
106,39.800000,0.00651147
107,39.800000,0.00656881
108,39.800000,0.00636609
109,39.800000,0.00586149
110,39.800000,0.0059015
111,39.800000,0.00594816
112,39.800000,0.00608778
113,39.800000,0.00684113
114,39.800000,0.00641863
115,39.800000,0.00657419
116,39.800000,0.00749593
117,39.800000,0.00766904
118,39.800000,0.00768669
119,39.800000,0.00727344
120,39.800000,0.0072819
121,39.800000,0.00734496
122,39.800000,0.00743484
123,39.800000,0.00736458
124,39.800000,0.00723797
125,39.800000,0.00653186
126,39.800000,0.00646025
127,39.800000,0.00640926
128,39.800000,0.00635896
129,39.800000,0.00627045
130,39.800000,0.00621428
131,39.800000,0.00623351
132,39.800000,0.00633903
133,39.800000,0.0064945
134,39.800000,0.00667437
135,39.800000,0.00682642
136,39.800000,0.00692967
137,39.800000,0.00697881
138,39.800000,0.00700094
139,39.800000,0.00698528
140,39.800000,0.00694586
141,39.800000,0.00691483
142,39.800000,0.0072748
143,39.800000,0.00692437
144,39.800000,0.00697306
145,39.800000,0.0068414
146,39.800000,0.00704366
147,39.800000,0.00703284
148,39.800000,0.00682484
149,39.800000,0.00670506
150,39.800000,0.0062065
151,39.800000,0.00625814
152,39.700000,0.00612563
153,39.700000,0.00594753
154,39.700000,0.00585316
155,39.700000,0.00584538
156,39.700000,0.00590151
157,39.700000,0.00589612
158,39.700000,0.00596539
159,39.800000,0.00621909
160,39.800000,0.00671827
161,39.800000,0.00636282
162,39.800000,0.00698977
163,39.800000,0.00711756
164,39.800000,0.00706525
165,39.800000,0.00656489
166,39.800000,0.00724734
167,39.800000,0.00747344
168,39.800000,0.00785361
169,39.800000,0.00777714
170,39.800000,0.00818498
171,39.800000,0.00843486
172,39.800000,0.00853957
173,39.800000,0.00878863
174,39.800000,0.0091595
175,39.800000,0.00931278
176,39.800000,0.00927854
177,39.800000,0.00961375
178,39.800000,0.00989363
179,39.800000,0.0100759
180,39.800000,0.0104198
181,39.800000,0.0107621
182,39.800000,0.0110462
183,39.800000,0.0113952
184,39.800000,0.0113613
185,39.800000,0.0112832
186,39.800000,0.0115714
187,39.800000,0.0114922
188,39.800000,0.0116245
189,39.800000,0.011638
190,39.800000,0.0116352
191,39.800000,0.011665
192,39.800000,0.0118485
193,39.800000,0.0118323
194,39.800000,0.0116707
195,39.800000,0.0116679
196,39.800000,0.0116126
197,39.800000,0.0116655
198,39.800000,0.0112333
199,39.800000,0.0112985
200,39.800000,0.0116652
201,39.800000,0.0116343
202,39.800000,0.0116827
203,39.800000,0.0112633
204,39.800000,0.0118373
205,39.800000,0.0119312
206,39.800000,0.0122649
207,39.800000,0.0123576
208,39.800000,0.0124046
209,39.800000,0.0124711
210,39.800000,0.0125879
211,39.800000,0.0125834
212,39.800000,0.0128829
213,39.800000,0.0128103
214,39.800000,0.0129094
215,39.800000,0.0130223
216,39.800000,0.0133005
217,39.800000,0.0133538
218,39.800000,0.0133468
219,39.800000,0.013383
220,39.800000,0.0135058
221,39.800000,0.0136677
222,39.800000,0.0136005
223,39.800000,0.0134618
224,39.800000,0.0133347
225,39.800000,0.013498
226,39.800000,0.013609
227,39.800000,0.0135504
228,39.800000,0.01363
229,39.800000,0.013707
230,39.800000,0.0137651
231,39.800000,0.0137914
232,39.800000,0.0136394
233,39.800000,0.0138513
234,39.800000,0.0139372
235,39.800000,0.0138498
236,39.800000,0.0140782
237,39.800000,0.0142377
238,39.800000,0.0142725
239,39.800000,0.0141688
240,39.800000,0.0141998
241,39.800000,0.0142255
242,39.800000,0.0142294
243,39.800000,0.0143886
244,39.800000,0.0147269
245,39.800000,0.0143741
246,39.800000,0.0145651
247,39.800000,0.0143924
248,39.800000,0.0142508
249,39.800000,0.0143806
250,39.800000,0.0142332
251,39.800000,0.0142364
252,39.800000,0.0142687
253,39.800000,0.0142367
254,39.800000,0.0144556
255,39.800000,0.0145164
256,39.800000,0.0145407
257,39.800000,0.0147012
258,39.800000,0.0146573
259,39.800000,0.0146308
260,39.800000,0.0141545
261,39.800000,0.0149617
262,39.800000,0.0153119
263,39.800000,0.015358
264,39.800000,0.0154142
265,39.800000,0.0150933
266,39.800000,0.0152035
267,39.800000,0.0157757
268,39.800000,0.0153863
269,39.800000,0.0154943
270,39.800000,0.0158661
271,39.800000,0.0160593
272,39.800000,0.0162829
273,39.800000,0.0164372
274,39.800000,0.0163552
275,39.800000,0.0166172
276,39.800000,0.0165276
277,39.800000,0.0166886
278,39.800000,0.0161005
279,39.800000,0.0162438
280,39.800000,0.0162734
281,39.800000,0.0169743
282,39.800000,0.0170961
283,39.800000,0.0171685
284,39.800000,0.0165572
285,39.800000,0.0165178
286,39.800000,0.0164517
287,39.800000,0.0163897
288,39.800000,0.0163448
289,39.800000,0.0162892
290,39.800000,0.0162372
291,39.800000,0.0162261
292,39.800000,0.0162659
293,39.800000,0.0170086
294,39.800000,0.0171611
295,39.800000,0.0166859
296,39.800000,0.0167982
297,39.800000,0.0168342
298,39.800000,0.0168191
299,39.800000,0.0167883
300,39.800000,0.0167598
301,39.800000,0.0167005
302,39.800000,0.0166599
303,39.800000,0.0166264
304,39.800000,0.0165907
305,39.800000,0.0164903
306,39.800000,0.0163874
307,39.800000,0.0163033
308,39.800000,0.016303
309,39.800000,0.0163676
310,39.800000,0.0164646
311,39.800000,0.0165767
312,39.800000,0.0166818
313,39.800000,0.0167509
314,39.800000,0.016758
315,39.800000,0.0167409
316,39.800000,0.017363
317,39.800000,0.0173569
318,39.800000,0.0173461
319,39.800000,0.0173531
320,39.800000,0.017298
321,39.800000,0.0166329
322,39.800000,0.0165922
323,39.800000,0.0165706
324,39.800000,0.0165527
325,39.800000,0.0165644
326,39.800000,0.0172349
327,39.800000,0.0172998
328,39.800000,0.0167242
329,39.800000,0.0174233
330,39.800000,0.0175055
331,39.800000,0.0175972
332,39.800000,0.0184677
333,39.800000,0.0185682
334,39.800000,0.018648
335,39.800000,0.0185201
336,39.800000,0.0179213
337,39.800000,0.0179653
338,39.800000,0.0180845
339,39.800000,0.0189182
340,39.800000,0.0187506
341,39.800000,0.0174123
342,39.800000,0.00122602
343,39.800000,0.00110307
344,39.800000,0.0170883
345,39.800000,-0.0007609
346,39.800000,-0.00162232
347,39.800000,-0.00116946
348,39.800000,-0.00238508
349,39.800000,-0.00384925
350,39.800000,-0.000772171
351,39.800000,-0.00343535
352,39.800000,-0.00130407
353,39.800000,-0.00268246
354,39.800000,-0.000490514
355,39.800000,-0.0011308
356,39.800000,-0.000428019
357,39.800000,-0.000325906
358,39.800000,-0.00040699
359,39.800000,-0.00063244
360,39.800000,-0.00210447
361,39.800000,-0.00278802
362,39.800000,-0.00390783
363,39.800000,-0.00210606
364,39.800000,-0.00272342
365,39.800000,-0.000463244
366,39.800000,-0.000415423
367,39.800000,-0.000299229
368,39.800000,-0.000241088
369,39.800000,-0.000226869
370,39.800000,-0.000270971
371,39.800000,-0.00331263
372,39.800000,-0.00409973
373,39.800000,-0.00392026
374,39.800000,-0.00437713
375,39.800000,-0.00470311
376,39.800000,-0.00334522
377,39.800000,-0.000573489
378,39.800000,-0.00259328
379,39.800000,-0.00369423
380,39.800000,-0.00396366
381,39.800000,-0.00313935
382,39.800000,-0.00390189
383,39.800000,-0.00365814
384,39.800000,-0.00432005
385,39.800000,-0.00586383
386,39.800000,-0.00986383
387,39.800000,-0.00777556
388,39.800000,-0.00770111
389,39.800000,-0.00487233
390,39.800000,-0.00442007
391,39.800000,-0.00449547
392,39.800000,-0.00628798
393,39.800000,-0.0099035
394,39.800000,-0.00829981
395,39.800000,-0.00632926
396,39.800000,-0.00589506
397,39.800000,-0.00602057
398,39.800000,-0.00517899
399,39.800000,-0.00597174
400,39.800000,-0.0103224
401,39.800000,-0.0111118
402,39.800000,-0.0105966
403,39.800000,-0.0101574
404,39.800000,-0.0102481
405,39.800000,-0.0102015
406,39.800000,-0.0100311
407,39.800000,-0.0105664
408,39.800000,-0.0103417
409,39.800000,-0.0109699
410,39.800000,-0.011118
411,39.800000,-0.0111297
412,39.800000,-0.0114536
413,39.800000,-0.0118162
414,39.800000,-0.0116588
415,39.800000,-0.0114657
416,39.800000,-0.0112293
417,39.800000,-0.0110021
418,39.800000,-0.0104318
419,39.800000,-0.0104723
420,39.800000,-0.0106238
421,39.800000,-0.0118233
422,39.800000,-0.0109274
423,39.800000,-0.0105481
424,39.800000,-0.0100625
425,39.800000,-0.0102564
426,39.800000,-0.0113919
427,39.800000,-0.0120285
428,39.800000,-0.0147811
429,39.800000,-0.0124314
430,39.800000,-0.0147562
431,39.800000,-0.0133799
432,39.900000,-0.0153074
433,39.900000,-0.0156066
434,39.900000,-0.0155175
435,39.900000,-0.0152567
436,39.800000,-0.0144734
437,39.900000,-0.0152826
438,39.800000,-0.0123793
439,39.800000,-0.011768
440,39.800000,-0.0113119
441,39.800000,-0.0112873
442,39.800000,-0.0106854
443,39.800000,-0.0109417
444,39.800000,-0.0116357
445,39.800000,-0.0122532
446,39.800000,-0.012806
447,39.900000,-0.0155655
448,39.900000,-0.0162103
449,39.900000,-0.0165592
450,39.900000,-0.017627
451,39.900000,-0.0175468
452,39.900000,-0.0181145
453,39.900000,-0.0177219
454,39.900000,-0.0163136
455,39.800000,-0.0144265
456,39.900000,-0.0152606
457,39.900000,-0.0179721
458,39.900000,-0.0181682
459,39.900000,-0.0183848
460,39.900000,-0.0170481
461,39.900000,-0.0165055
462,39.900000,-0.0156266
463,39.900000,-0.0162084
464,39.900000,-0.0167988
465,39.900000,-0.0170338
466,39.900000,-0.0176305
467,39.900000,-0.0178366
468,39.900000,-0.0169267
469,39.900000,-0.0163407
470,39.900000,-0.015997
471,39.900000,-0.0168332
472,39.900000,-0.0182344
473,39.900000,-0.0188341
474,39.900000,-0.0183031
475,39.900000,-0.0186227
476,39.900000,-0.0188327
477,39.900000,-0.0188482
478,39.900000,-0.0188289
479,39.900000,-0.0186384
480,39.900000,-0.0195898
481,39.900000,-0.0193616
482,39.900000,-0.0196438
483,39.900000,-0.0197042
484,39.900000,-0.019108
485,39.900000,-0.0186217
486,39.900000,-0.0191105
487,39.900000,-0.0187791
488,39.900000,-0.0178739
489,39.900000,-0.0200162
490,39.900000,-0.021971
491,39.900000,-0.0227394
492,39.900000,-0.0227012
493,39.900000,-0.0217352
494,39.900000,-0.0208645
495,39.900000,-0.0209995
496,39.900000,-0.0206253
497,39.900000,-0.0204051
498,39.900000,-0.0213976
499,39.900000,-0.0215743
500,39.900000,-0.0206114
501,39.900000,-0.0205085
502,39.900000,-0.0218602
503,39.900000,-0.0216205
504,39.900000,-0.021697
505,39.900000,-0.0218094
506,39.900000,-0.0222452
507,39.900000,-0.0222352
508,39.900000,-0.0220591
509,39.900000,-0.0220437
510,39.900000,-0.0222917
511,39.900000,-0.0222678
512,39.900000,-0.0223503
513,39.900000,-0.0225504
514,39.900000,-0.022591
515,39.900000,-0.0224605
516,39.900000,-0.0224518
517,39.900000,-0.0226824
518,39.900000,-0.0226332
519,39.900000,-0.0230235
520,39.900000,-0.0230392
521,39.900000,-0.0249493
522,39.900000,-0.0264965
523,39.900000,-0.0266287
524,39.900000,-0.0255142
525,39.900000,-0.0244369
526,39.900000,-0.0239416
527,39.900000,-0.0229254
528,39.900000,-0.0227263
529,39.900000,-0.0225238
530,39.900000,-0.0228458
531,39.900000,-0.0231248
532,39.900000,-0.0242312
533,39.900000,-0.0241208
534,39.900000,-0.0237952
535,39.900000,-0.0231944
536,39.900000,-0.0230319
537,39.900000,-0.0238605
538,39.900000,-0.0251692
539,39.900000,-0.0253539
540,39.900000,-0.024989
541,39.900000,-0.0241155
542,39.900000,-0.0232182
543,39.900000,-0.0232198
544,39.900000,-0.0245124
545,39.900000,-0.0254876
546,39.900000,-0.025443
547,39.900000,-0.0259213
548,39.900000,-0.0253443
549,39.900000,-0.0246293
550,39.900000,-0.0247643
551,39.900000,-0.0254079
552,39.900000,-0.0267287
553,40.000000,-0.0284277
554,40.000000,-0.0290447
555,39.900000,-0.027035
556,40.000000,-0.0281724
557,40.000000,-0.0277168
558,39.900000,-0.027114
559,39.900000,-0.0266287
560,40.000000,-0.0277946
561,40.000000,-0.0280492
562,40.000000,-0.027949
563,40.000000,-0.0274525
564,40.000000,-0.0285673
565,40.000000,-0.0288639
566,40.000000,-0.028282
567,40.000000,-0.0287138
568,40.000000,-0.030934
569,40.000000,-0.0317465
570,40.000000,-0.0324357
571,40.000000,-0.0315345
572,40.000000,-0.0317463
573,40.000000,-0.0313219
574,40.000000,-0.0314846
575,40.000000,-0.0319733
576,40.000000,-0.0324662
577,40.000000,-0.0321215
578,40.000000,-0.0325296
579,40.000000,-0.031597
580,40.000000,-0.0311474
581,40.000000,-0.0321849
582,40.000000,-0.0327105
583,40.000000,-0.0328235
584,40.000000,-0.0331186
585,40.000000,-0.0333776
586,40.000000,-0.0327809
587,40.000000,-0.0319793
588,40.000000,-0.03198
589,40.000000,-0.0324573
590,40.000000,-0.0332198
591,40.000000,-0.0332131
592,40.000000,-0.033614
593,40.000000,-0.0330488
594,40.000000,-0.0326988
595,40.000000,-0.0327998
596,40.000000,-0.0331992
597,40.000000,-0.0338955
598,40.000000,-0.0344529
599,40.000000,-0.034201
600,40.000000,-0.034105
601,40.000000,-0.0338411
602,40.000000,-0.0341207
603,40.000000,-0.0340662
604,40.000000,-0.0341111
605,40.000000,-0.0336919
606,40.000000,-0.034049
607,40.000000,-0.0337506
608,40.000000,-0.0333109
609,40.000000,-0.0334743
610,40.000000,-0.0331175
611,40.000000,-0.0326882
612,40.000000,-0.0327154
613,40.000000,-0.0324253
614,40.000000,-0.0334005
615,40.000000,-0.0329941
616,40.100000,-0.0335571
617,40.100000,-0.0331789
618,40.100000,-0.0320596
619,40.100000,-0.0315042
620,40.100000,-0.0310818
621,40.100000,-0.0303165
622,40.100000,-0.0292126
623,40.100000,-0.0285612
624,40.100000,-0.0271496
625,40.100000,-0.0261285
626,40.100000,-0.0270951
627,40.200000,-0.0280342
628,40.200000,-0.0292883
629,40.200000,-0.0292993
630,40.200000,-0.0304305
631,40.200000,-0.0293418
632,40.200000,-0.028573
633,40.200000,-0.0271134
634,40.200000,-0.0268098
635,40.300000,-0.0255694
636,40.300000,-0.0243446
637,40.300000,-0.0233106
638,40.300000,-0.0237036
639,40.300000,-0.0247919
640,40.400000,-0.0256082
641,40.400000,-0.0251133
642,40.400000,-0.0250045
643,40.400000,-0.0249813
644,40.500000,-0.0240284
645,40.500000,-0.0224167
646,40.500000,-0.0213428
647,40.500000,-0.0200729
648,40.500000,-0.0194574
649,40.600000,-0.0197821
650,40.600000,-0.0192795
651,40.600000,-0.0187389
652,40.600000,-0.0184096
653,40.700000,-0.018652
654,40.700000,-0.0185695
655,40.800000,-0.0186147
656,40.800000,-0.0185017
657,40.800000,-0.0176109
658,40.900000,-0.0169902
659,40.900000,-0.0174685
660,41.000000,-0.0173924
661,41.000000,-0.0177036
662,41.000000,-0.0177435
663,41.100000,-0.0172594
664,41.100000,-0.0163716
665,41.200000,-0.0158698
666,41.300000,-0.0150733
667,41.300000,-0.0144188
668,41.400000,-0.0140724
669,41.400000,-0.0130582
670,41.500000,-0.0128723
671,41.600000,-0.0115039
672,41.600000,-0.0109087
673,41.700000,-0.0104835
674,41.700000,-0.00950431
675,41.800000,-0.00936061
676,41.900000,-0.00858068
677,41.900000,-0.0086525
678,42.000000,-0.00913018
679,42.100000,-0.00910265
680,42.100000,-0.00874495
681,42.200000,-0.00890685
682,42.300000,-0.00899566
683,42.400000,-0.00897468
684,42.500000,-0.00959081
685,42.600000,-0.00968543
686,42.700000,-0.00908
687,42.800000,-0.00855773
688,42.900000,-0.00843851
689,42.900000,-0.00767108
690,43.000000,-0.00702114
691,43.100000,-0.00661975
692,43.200000,-0.0069232
693,43.400000,-0.00702732
694,43.400000,-0.00647965
695,43.500000,-0.00584198
696,43.600000,-0.00522239
697,43.800000,-0.0055113
698,43.900000,-0.00537638
699,44.000000,-0.00536266
700,44.100000,-0.00529107
701,44.200000,-0.00529898
702,44.400000,-0.00534446
703,44.500000,-0.00554126
704,44.600000,-0.00559442
705,44.800000,-0.00581753
706,44.900000,-0.00554449
707,45.000000,-0.00550504
708,45.200000,-0.00527024
709,45.300000,-0.0052803
710,45.400000,-0.00498533
711,45.600000,-0.0048916
712,45.700000,-0.00499555
713,45.900000,-0.00485097
714,46.000000,-0.0049982
715,46.200000,-0.00515991
716,46.400000,-0.00542892
717,46.500000,-0.00520876
718,46.700000,-0.00470861
719,46.800000,-0.00429534
720,47.000000,-0.00406734
721,47.200000,-0.00402209
722,47.300000,-0.00366338
723,47.500000,-0.00310209
724,47.600000,-0.00258672
725,47.800000,-0.00261121
726,48.000000,-0.00240425
727,48.200000,-0.00266012
728,48.300000,-0.00229568
729,48.500000,-0.00180935
730,48.700000,-0.00151252
731,48.900000,-0.00141093
732,49.000000,-0.00136403
733,49.200000,-0.00133427
734,49.400000,-0.0013597
735,49.600000,-0.00166518
736,49.800000,-0.00175793
737,50.000000,-0.00179693
738,50.200000,-0.00169005
739,50.300000,-0.00175114
740,50.500000,-0.00168742
741,50.700000,-0.00182241
742,50.900000,-0.00170501
743,51.100000,-0.0019207
744,51.300000,-0.00174739
745,51.500000,-0.00167272
746,51.700000,-0.00171753
747,51.900000,-0.00168901
748,52.100000,-0.0016669
749,52.300000,-0.0016692
750,52.500000,-0.00164255
751,52.700000,-0.00185051
752,53.000000,-0.00184743
753,53.200000,-0.00161302
754,53.400000,-0.00135017
755,53.600000,-0.00114047
756,53.800000,-0.00116209
757,54.000000,-0.00126751
758,54.200000,-0.00130108
759,54.400000,-0.00149125
760,54.700000,-0.00142858
761,54.900000,-0.00142152
762,55.100000,-0.00154369
763,55.300000,-0.00149609
764,55.600000,-0.00123958
765,55.800000,-0.000957096
766,56.000000,-0.00082496
767,56.200000,-0.000753
768,56.400000,-0.000747898
769,56.600000,-0.00109862
770,56.800000,-0.00143549
771,57.100000,-0.00165249
772,57.300000,-0.00163107
773,57.500000,-0.00159226
774,57.700000,-0.00167807
775,58.000000,-0.00172596
776,58.200000,-0.00155865
777,58.400000,-0.00155803
778,58.600000,-0.00159901
779,58.800000,-0.0017056
780,59.000000,-0.00172749
781,59.300000,-0.00175689
782,59.500000,-0.00182821
783,59.700000,-0.00187604
784,59.900000,-0.00171849
785,60.100000,-0.00171149
786,60.400000,-0.00170602
787,60.600000,-0.00172254
788,60.800000,-0.00167444
789,61.000000,-0.00145023
790,61.300000,-0.00113719
791,61.500000,-0.000828366
792,61.700000,-0.000620408
793,61.900000,-0.00038917
794,62.100000,-0.000246823
795,62.400000,-0.000141435
796,62.600000,1.79373e-06
797,62.800000,4.60645e-05
798,63.000000,-2.37955e-05
799,63.200000,-0.000149304
800,63.400000,-0.00032973
801,63.700000,-0.000512998
802,63.900000,-0.000565818
803,64.100000,-0.000607809
804,64.300000,-0.000653233
805,64.500000,-0.00057176
806,64.800000,-0.000338768
807,65.000000,-0.000125988
808,65.200000,3.74101e-05
809,65.400000,0.00018325
810,65.600000,0.000351251
811,65.800000,0.00055071
812,66.100000,0.000788023
813,66.300000,0.00104745
814,66.500000,0.00131944
815,66.700000,0.0015297
816,66.900000,0.00170937
817,67.100000,0.00194089
818,67.300000,0.00221323
819,67.500000,0.00249032
820,67.700000,0.00279694
821,67.900000,0.00302715
822,68.100000,0.0031138
823,68.300000,0.00306757
824,68.500000,0.00301585
825,68.700000,0.00290285
826,68.900000,0.00280415
827,69.100000,0.0027411
828,69.300000,0.00267693
829,69.500000,0.00260685
830,69.700000,0.00251373
831,69.900000,0.00238104
832,70.100000,0.00226092
833,70.300000,0.00213029
834,70.600000,0.00201165
835,70.800000,0.00196102
836,71.000000,0.00195844
837,71.200000,0.00191164
838,71.400000,0.00184041
839,71.600000,0.00185193
840,71.800000,0.0018509
841,72.000000,0.00187193
842,72.200000,0.00195396
843,72.400000,0.00205043
844,72.500000,0.00218126
845,72.700000,0.00224336
846,72.900000,0.00225188
847,73.100000,0.00220217
848,73.400000,0.00219177
849,73.500000,0.00222705
850,73.700000,0.00226695
851,73.900000,0.00231705
852,74.100000,0.00232783
853,74.300000,0.00230596
854,74.500000,0.00225066
855,74.700000,0.00217006
856,74.900000,0.00212119
857,75.100000,0.00209416
858,75.300000,0.00211216
859,75.400000,0.0021447
860,75.600000,0.00213823
861,75.800000,0.00207738
862,76.000000,0.00200086
863,76.200000,0.00188968
864,76.400000,0.001733
865,76.600000,0.0015474
866,76.700000,0.00137073
867,76.900000,0.00122294
868,77.100000,0.00112363
869,77.300000,0.00110588
870,77.500000,0.00116913
871,77.700000,0.0013292
872,77.900000,0.00155812
873,78.000000,0.00175719
874,78.200000,0.00186476
875,78.400000,0.00184427
876,78.600000,0.0017968
877,78.800000,0.00173414
878,79.000000,0.00166761
879,79.100000,0.00160621
880,79.300000,0.00154079
881,79.500000,0.00147312
882,79.700000,0.00140936
883,79.900000,0.00128597
884,80.000000,0.0010763
885,80.200000,0.000797436
886,80.400000,0.000467096
887,80.600000,0.000126694
888,80.800000,-0.000145866
889,80.900000,-0.000327024
890,81.100000,-0.000447576
891,81.300000,-0.000547139
892,81.500000,-0.000597443
893,81.700000,-0.000603305
894,81.800000,-0.00056479
895,82.000000,-0.000537392
896,82.200000,-0.000552149
897,82.400000,-0.000575002
898,82.500000,-0.000555044
899,82.700000,-0.000505991
900,82.900000,-0.000435663
901,83.100000,-0.000336403
902,83.300000,-0.000231072
903,83.400000,-0.000152628
904,83.600000,-0.000111649
905,83.800000,-0.000134748
906,83.900000,-0.000169755
907,84.100000,-0.00018314
908,84.300000,-0.000191635
909,84.500000,-0.0002246
910,84.700000,-0.000243606
911,84.800000,-0.000249709
912,85.000000,-0.000270428
913,85.200000,-0.000308563
914,85.300000,-0.000362582
915,85.500000,-0.000439951
916,85.700000,-0.000544437
917,85.900000,-0.000616581
918,86.000000,-0.000653034
919,86.200000,-0.000664471
920,86.400000,-0.000699862
921,86.600000,-0.000749803
922,86.700000,-0.000806558
923,86.900000,-0.000859875
924,87.100000,-0.000920162
925,87.300000,-0.000953713
926,87.400000,-0.000946461
927,87.600000,-0.000877509
928,87.800000,-0.000747467
929,88.000000,-0.000551508
930,88.100000,-0.000321226
931,88.300000,-0.000113057
932,88.500000,-1.16608e-05
933,88.600000,7.58128e-06
934,88.800000,-3.65757e-05
935,89.000000,-0.000116257
936,89.100000,-0.000209567
937,89.300000,-0.000319797
938,89.500000,-0.000419225
939,89.600000,-0.000463434
940,89.800000,-0.000467706
941,90.000000,-0.000442605
942,90.100000,-0.000402427
943,90.300000,-0.000293707
944,90.500000,-0.000189771
945,90.600000,-8.86279e-05
946,90.800000,2.91671e-05
947,91.000000,0.000102701
948,91.100000,0.000151127
949,91.300000,0.000160162
950,91.500000,0.000174446
951,91.600000,0.000207093
952,91.800000,0.000222941
953,92.000000,0.00020259
954,92.100000,0.000189297
955,92.300000,0.000139404
956,92.500000,0.00015302
957,92.700000,0.000202333
958,92.800000,0.000252345
959,93.000000,0.000187113
960,93.200000,8.21673e-06
961,93.300000,-0.000269856
962,93.500000,-0.000512544
963,93.700000,-0.000683167
964,93.900000,-0.00074573
965,94.000000,-0.00072563
966,94.200000,-0.000640933
967,94.400000,-0.000540039
968,94.500000,-0.000450203
969,94.700000,-0.000394311
970,94.900000,-0.000328785
971,95.100000,-0.000215343
972,95.200000,-8.77454e-05
973,95.400000,2.62749e-05
974,95.600000,0.00011158
975,95.800000,0.000146307
976,95.900000,0.000195753
977,96.100000,0.000230027
978,96.300000,0.00023461
979,96.400000,0.00021096
980,96.600000,0.000124077
981,96.800000,-8.96048e-05
982,96.900000,-0.000386201
983,97.100000,-0.000748033
984,97.300000,-0.00104084
985,97.500000,-0.00128026
986,97.700000,-0.00147786
987,97.800000,-0.00161287
988,98.000000,-0.00172593
989,98.200000,-0.0018611
990,98.400000,-0.00200458
991,98.500000,-0.00212177
992,98.700000,-0.00224297
993,98.900000,-0.0023772
994,99.000000,-0.00256922
995,99.200000,-0.00283255
996,99.400000,-0.0031376
997,99.600000,-0.00345177
998,99.800000,-0.00369799
999,99.900000,-0.00389267
1000,100.100000,-0.00407916
1001,100.300000,-0.00429784
1002,100.400000,-0.0044318
1003,100.600000,-0.0045333
1004,100.800000,-0.00455773
1005,101.000000,-0.00455397
1006,101.100000,-0.00450348
1007,101.300000,-0.00445224
1008,101.500000,-0.00435857
1009,101.700000,-0.00424554
1010,101.900000,-0.0041145
1011,102.000000,-0.00398837
1012,102.200000,-0.00387835
1013,102.400000,-0.00377529
1014,102.500000,-0.00369319
1015,102.700000,-0.00366073
1016,102.900000,-0.00366402
1017,103.100000,-0.00367811
1018,103.300000,-0.00363389
1019,103.400000,-0.00354872
1020,103.600000,-0.00344433
1021,103.800000,-0.00338502
1022,104.000000,-0.00332586
1023,104.100000,-0.00325794
1024,104.300000,-0.00316353
1025,104.500000,-0.00304622
1026,104.700000,-0.00294937
1027,104.900000,-0.00287218
1028,105.100000,-0.00292559
1029,105.200000,-0.00302923
1030,105.400000,-0.00313154
1031,105.600000,-0.00321017
1032,105.800000,-0.0032586
1033,106.000000,-0.00330265
1034,106.100000,-0.00326113
1035,106.300000,-0.00316734
1036,106.500000,-0.00303812
1037,106.700000,-0.0029034
1038,106.900000,-0.00276461
1039,107.000000,-0.00262428
1040,107.200000,-0.00250132
1041,107.400000,-0.00241059
1042,107.600000,-0.00232019
1043,107.800000,-0.00227656
1044,108.000000,-0.00223769
1045,108.100000,-0.00227209
1046,108.300000,-0.0022971
1047,108.500000,-0.00230781
1048,108.700000,-0.00230185
1049,108.900000,-0.00232689
1050,109.000000,-0.00243551
1051,109.200000,-0.00262705
1052,109.400000,-0.00285039
1053,109.600000,-0.00303117
1054,109.800000,-0.00315037
1055,109.900000,-0.00318831
1056,110.100000,-0.00320599
1057,110.300000,-0.00326218
1058,110.500000,-0.00326159
1059,110.700000,-0.00326329
1060,110.900000,-0.00325496
1061,111.100000,-0.00335613
1062,111.200000,-0.00343097
1063,111.400000,-0.0035227
1064,111.600000,-0.0034892
1065,111.800000,-0.00339022
1066,112.000000,-0.00322481
1067,112.200000,-0.00309813
1068,112.400000,-0.00301317
1069,112.500000,-0.00296101
1070,112.700000,-0.00290439
1071,112.900000,-0.00285288
1072,113.100000,-0.00285801
1073,113.300000,-0.0028837
1074,113.500000,-0.00293623
1075,113.700000,-0.00300185
1076,113.900000,-0.00303474
1077,114.100000,-0.00295447
1078,114.200000,-0.00284421
1079,114.400000,-0.00273272
1080,114.600000,-0.0026454
1081,114.800000,-0.00253317
1082,115.000000,-0.00244897
1083,115.200000,-0.0024809
1084,115.400000,-0.00258184
1085,115.600000,-0.00275157
1086,115.800000,-0.00284793
1087,115.900000,-0.00289289
1088,116.100000,-0.00292631
1089,116.300000,-0.00302908
1090,116.500000,-0.00317987
1091,116.700000,-0.0033657
1092,116.900000,-0.00353636
1093,117.100000,-0.0036906
1094,117.300000,-0.0038008
1095,117.400000,-0.0038382
1096,117.600000,-0.00384447
1097,117.800000,-0.003828
1098,118.000000,-0.00377238
1099,118.200000,-0.00372319
1100,118.300000,-0.00370139
1101,118.500000,-0.00368185
1102,118.700000,-0.00365193
1103,118.900000,-0.00360369
1104,119.100000,-0.00351872
1105,119.300000,-0.00345842
1106,119.500000,-0.00342446
1107,119.700000,-0.00340489
1108,119.800000,-0.00336378
1109,120.000000,-0.00334782
1110,120.200000,-0.00333851
1111,120.400000,-0.00331871
1112,120.600000,-0.00330253
1113,120.800000,-0.00328709
1114,121.000000,-0.00328908
1115,121.200000,-0.00332766
1116,121.300000,-0.00329988
1117,121.500000,-0.00322022
1118,121.700000,-0.00314846
1119,121.900000,-0.00308079
1120,122.100000,-0.00307013
1121,122.300000,-0.00309653
1122,122.500000,-0.00320607
1123,122.700000,-0.00341322
1124,122.800000,-0.00357444
1125,123.000000,-0.00372669
1126,123.200000,-0.00384785
1127,123.400000,-0.00404004
1128,123.600000,-0.00424365
1129,123.800000,-0.00445855
1130,124.000000,-0.00457469
1131,124.200000,-0.00464681
1132,124.400000,-0.00469865
1133,124.600000,-0.00472371
1134,124.700000,-0.00472601
1135,124.900000,-0.00464193
1136,125.100000,-0.00452748
1137,125.300000,-0.00442796
1138,125.500000,-0.00430341
1139,125.700000,-0.00412263
1140,125.900000,-0.00387658
1141,126.000000,-0.00364684
1142,126.200000,-0.00353782
1143,126.400000,-0.00353872
1144,126.600000,-0.00358455
1145,126.800000,-0.0036308
1146,127.000000,-0.00362743
1147,127.200000,-0.00357116
1148,127.400000,-0.00349372
1149,127.600000,-0.00340642
1150,127.800000,-0.00335798
1151,127.900000,-0.00338655
1152,128.100000,-0.00343414
1153,128.300000,-0.00349359
1154,128.500000,-0.00357873
1155,128.700000,-0.00369301
1156,128.900000,-0.00379756
1157,129.000000,-0.00394683
1158,129.200000,-0.00408885
1159,129.400000,-0.00423188
1160,129.600000,-0.00433458
1161,129.800000,-0.00442684
1162,130.000000,-0.00446215
1163,130.200000,-0.00444446
1164,130.300000,-0.00443917
1165,130.500000,-0.00450176
1166,130.700000,-0.00467662
1167,130.900000,-0.00486841
1168,131.100000,-0.0051276
1169,131.300000,-0.0053926
1170,131.500000,-0.00564603
1171,131.700000,-0.0058969
1172,131.800000,-0.00611414
1173,132.000000,-0.00630013
1174,132.200000,-0.00648951
1175,132.400000,-0.00669462
1176,132.600000,-0.00681337
1177,132.800000,-0.0069266
1178,132.900000,-0.00703909
1179,133.100000,-0.00721448
1180,133.300000,-0.00737851
1181,133.500000,-0.00754816
1182,133.700000,-0.00768421
1183,133.900000,-0.00773845
1184,134.000000,-0.00771084
1185,134.200000,-0.00761473
1186,134.400000,-0.00746563
1187,134.600000,-0.00729205
1188,134.800000,-0.00714489
1189,135.000000,-0.00702014
1190,135.200000,-0.00693699
1191,135.400000,-0.00683254
1192,135.600000,-0.00669778
1193,135.700000,-0.00658194
1194,135.900000,-0.00644254
1195,136.100000,-0.00630069
1196,136.300000,-0.00618811
1197,136.500000,-0.00612487
1198,136.700000,-0.0061068
1199,136.800000,-0.00612651
1200,137.000000,-0.00618686
1201,137.200000,-0.00627431
1202,137.400000,-0.00637831
1203,137.600000,-0.00646439
1204,137.800000,-0.00656294
1205,138.000000,-0.00663014
1206,138.100000,-0.00669338
1207,138.300000,-0.00674996
1208,138.500000,-0.00681652
1209,138.700000,-0.00688078
1210,138.800000,-0.0069708
1211,139.000000,-0.00709341
1212,139.200000,-0.0072144
1213,139.400000,-0.00730935
1214,139.600000,-0.00736208
1215,139.800000,-0.00741696
1216,139.900000,-0.00749459
1217,140.100000,-0.00758311
1218,140.300000,-0.0076681
1219,140.500000,-0.00773908
1220,140.700000,-0.00780412
1221,140.900000,-0.00787189
1222,141.000000,-0.00793116
1223,141.200000,-0.00796499
1224,141.400000,-0.0079988
1225,141.600000,-0.00802806
1226,141.800000,-0.00806742
1227,142.000000,-0.00812605
1228,142.200000,-0.00815774
1229,142.300000,-0.00815276
1230,142.500000,-0.00811129
1231,142.700000,-0.00808386
1232,142.900000,-0.00802987
1233,143.100000,-0.00794443
1234,143.200000,-0.00781026
1235,143.400000,-0.00769341
1236,143.600000,-0.00763376
1237,143.800000,-0.0076084
1238,144.000000,-0.00761569
1239,144.100000,-0.00765273
1240,144.300000,-0.00764142
1241,144.500000,-0.00757635
1242,144.700000,-0.00750853
1243,144.900000,-0.00744173
1244,145.100000,-0.00734288
1245,145.200000,-0.00722735
1246,145.400000,-0.00714649
1247,145.600000,-0.00712563
1248,145.800000,-0.00711046
1249,146.000000,-0.00712406
1250,146.200000,-0.00717009
1251,146.300000,-0.00723354
1252,146.500000,-0.007292
1253,146.700000,-0.00732179
1254,146.900000,-0.00730304
1255,147.100000,-0.00722459
1256,147.300000,-0.00717571
1257,147.400000,-0.00717612
1258,147.600000,-0.00720631
1259,147.800000,-0.0072549
1260,148.000000,-0.00735985
1261,148.200000,-0.00740869
1262,148.400000,-0.00740604
1263,148.500000,-0.00738499
1264,148.700000,-0.00741762
1265,148.900000,-0.00744679
1266,149.100000,-0.00745713
1267,149.300000,-0.00744267
1268,149.400000,-0.00744193
1269,149.600000,-0.00745799
1270,149.800000,-0.00747934
1271,150.000000,-0.00754185
1272,150.200000,-0.007704
1273,150.400000,-0.00790423
1274,150.500000,-0.00808553
1275,150.700000,-0.00821317
1276,150.900000,-0.00827708
1277,151.100000,-0.00828082
1278,151.300000,-0.00828063
1279,151.500000,-0.00829075
1280,151.600000,-0.00833115
1281,151.800000,-0.00842563
1282,152.000000,-0.00852641
1283,152.200000,-0.0086169
1284,152.400000,-0.00868344
1285,152.500000,-0.00877956
1286,152.700000,-0.00892394
1287,152.900000,-0.0091106
1288,153.100000,-0.00923776
1289,153.300000,-0.00927278
1290,153.500000,-0.0092383
1291,153.600000,-0.0091455
1292,153.800000,-0.00901726
1293,154.000000,-0.00894863
1294,154.200000,-0.00892744
1295,154.400000,-0.00898639
1296,154.500000,-0.0090648
1297,154.700000,-0.00913273
1298,154.900000,-0.00919836
1299,155.100000,-0.00927452
1300,155.300000,-0.0093636
1301,155.500000,-0.00944397
1302,155.600000,-0.00953963
1303,155.800000,-0.00961729
1304,156.000000,-0.00965529
1305,156.200000,-0.0096737
1306,156.400000,-0.00968278
1307,156.500000,-0.00966536
1308,156.700000,-0.0096352
1309,156.900000,-0.00959019
1310,157.100000,-0.00960587
1311,157.300000,-0.00965218
1312,157.400000,-0.00967441
1313,157.600000,-0.00967996
1314,157.800000,-0.00969513
1315,158.000000,-0.00974527
1316,158.200000,-0.0098378
1317,158.400000,-0.00990712
1318,158.500000,-0.00994565
1319,158.700000,-0.00995252
1320,158.900000,-0.00995589
1321,159.100000,-0.0099511
1322,159.300000,-0.00993686
1323,159.400000,-0.00993254
1324,159.600000,-0.00994349
1325,159.800000,-0.0100041
1326,160.000000,-0.0102077
1327,160.200000,-0.0105478
1328,160.300000,-0.0109336
1329,160.500000,-0.0113188
1330,160.700000,-0.0116426
1331,160.900000,-0.0119158
1332,161.100000,-0.0121409
1333,161.300000,-0.0123679
1334,161.400000,-0.0126139
1335,161.600000,-0.0128576
1336,161.800000,-0.0130463
1337,162.000000,-0.0131744
1338,162.200000,-0.0132514
1339,162.400000,-0.0133063
1340,162.500000,-0.0133471
1341,162.700000,-0.0134018
1342,162.900000,-0.0134477
1343,163.100000,-0.0135322
1344,163.300000,-0.0135993
1345,163.400000,-0.0135872
1346,163.600000,-0.0135078
1347,163.800000,-0.0134021
1348,164.000000,-0.0133135
1349,164.200000,-0.0132529
1350,164.400000,-0.0132141
1351,164.500000,-0.0132024
1352,164.700000,-0.0132301
1353,164.900000,-0.0133032
1354,165.100000,-0.0133849
1355,165.300000,-0.0134647
1356,165.400000,-0.013515
1357,165.600000,-0.0135278
1358,165.800000,-0.0134929
1359,166.000000,-0.0134494
1360,166.100000,-0.0134294
1361,166.300000,-0.0134208
1362,166.500000,-0.0134652
1363,166.700000,-0.0135766
1364,166.800000,-0.013724
1365,167.000000,-0.0138983
1366,167.200000,-0.014096
1367,167.400000,-0.0142884
1368,167.500000,-0.0144399
1369,167.700000,-0.014552
1370,167.900000,-0.0146281
1371,168.100000,-0.0147164
1372,168.300000,-0.0148616
1373,168.400000,-0.0149974
1374,168.600000,-0.0150812
1375,168.800000,-0.0150843
1376,169.000000,-0.0150453
1377,169.100000,-0.0149856
1378,169.300000,-0.0149706
1379,169.500000,-0.0150282
1380,169.700000,-0.0151294
1381,169.800000,-0.0152408
1382,170.000000,-0.0153675
1383,170.200000,-0.0155464
1384,170.400000,-0.0157658
1385,170.600000,-0.015968
1386,170.700000,-0.0161604
1387,170.900000,-0.0163363
1388,171.100000,-0.0165204
1389,171.300000,-0.0166884
1390,171.400000,-0.0168724
1391,171.600000,-0.0170279
1392,171.800000,-0.0171713
1393,172.000000,-0.0172879
1394,172.200000,-0.0174383
1395,172.300000,-0.0176068
1396,172.500000,-0.017757
1397,172.700000,-0.0178696
1398,172.900000,-0.0179779
1399,173.000000,-0.0180931
1400,173.200000,-0.0182033
1401,173.400000,-0.0183353
1402,173.600000,-0.0184902
1403,173.700000,-0.0186839
1404,173.900000,-0.0188953
1405,174.100000,-0.0191617
1406,174.300000,-0.0194241
1407,174.500000,-0.0196648
1408,174.600000,-0.0199242
1409,174.800000,-0.020168
1410,175.000000,-0.0203853
1411,175.200000,-0.020536
1412,175.400000,-0.0206353
1413,175.500000,-0.0207051
1414,175.700000,-0.0207929
1415,175.900000,-0.0209155
1416,176.100000,-0.0210778
1417,176.200000,-0.0212499
1418,176.400000,-0.0214739
1419,176.600000,-0.0217572
1420,176.800000,-0.0220936
1421,177.000000,-0.0223967
1422,177.100000,-0.0226687
1423,177.300000,-0.0228844
1424,177.500000,-0.0230581
1425,177.700000,-0.0232366
1426,177.900000,-0.0234153
1427,178.000000,-0.02359
1428,178.200000,-0.0238351
1429,178.400000,-0.0240885
1430,178.600000,-0.0243802
1431,178.700000,-0.0247324
1432,178.900000,-0.0251191
1433,179.100000,-0.0255628
1434,179.300000,-0.0259977
1435,179.400000,-0.0264208
1436,179.600000,-0.0267958
1437,179.800000,-0.0271436
1438,180.000000,-0.0274408
1439,180.100000,-0.0277193
1440,180.300000,-0.0280093
1441,180.500000,-0.0282892
1442,180.700000,-0.0285357
1443,180.900000,-0.0287455
1444,181.000000,-0.0289487
1445,181.200000,-0.029159
1446,181.400000,-0.0293855
1447,181.600000,-0.029608
1448,181.800000,-0.0299081
1449,181.900000,-0.0302365
1450,182.100000,-0.0305715
1451,182.300000,-0.0308459
1452,182.500000,-0.0310669
1453,182.600000,-0.0312867
1454,182.800000,-0.0315571
1455,183.000000,-0.0318789
1456,183.200000,-0.0322251
1457,183.300000,-0.0325238
1458,183.500000,-0.0327654
1459,183.700000,-0.0329362
1460,183.900000,-0.03309
1461,184.000000,-0.0333101
1462,184.200000,-0.0336257
1463,184.400000,-0.0340471
1464,184.600000,-0.0344975
1465,184.800000,-0.0349219
1466,184.900000,-0.035276
1467,185.100000,-0.035578
1468,185.300000,-0.0358185
1469,185.500000,-0.0360496
1470,185.700000,-0.0363126
1471,185.800000,-0.0366335
1472,186.000000,-0.0369999
1473,186.200000,-0.037397
1474,186.400000,-0.0377533
1475,186.500000,-0.0380271
1476,186.700000,-0.0382629
1477,186.900000,-0.0385088
1478,187.100000,-0.0388275
1479,187.300000,-0.0391709
1480,187.400000,-0.039538
1481,187.600000,-0.0399024
1482,187.800000,-0.0402885
1483,188.000000,-0.0406403
1484,188.200000,-0.0409357
1485,188.300000,-0.0411778
1486,188.500000,-0.0414252
1487,188.700000,-0.0417242
1488,188.800000,-0.0420868
1489,189.000000,-0.0424869
1490,189.200000,-0.0428958
1491,189.400000,-0.0432903
1492,189.600000,-0.0437065
1493,189.800000,-0.0441684
1494,189.900000,-0.0446634
1495,190.100000,-0.0451309
1496,190.300000,-0.0455605
1497,190.500000,-0.0459365
1498,190.700000,-0.0462425
1499,190.800000,-0.0465373
1500,191.000000,-0.0468375
1501,191.200000,-0.0472125
1502,191.400000,-0.0476074
1503,191.500000,-0.0479827
1504,191.700000,-0.0483449
1505,191.900000,-0.048701
1506,192.100000,-0.0490421
1507,192.200000,-0.0493999
1508,192.400000,-0.0498142
1509,192.600000,-0.0502652
1510,192.800000,-0.0506926
1511,192.900000,-0.0510728
1512,193.100000,-0.0514432
1513,193.300000,-0.0517901
1514,193.500000,-0.052106
1515,193.700000,-0.0524182
1516,193.800000,-0.0527618
1517,194.000000,-0.0531363
1518,194.200000,-0.0535622
1519,194.300000,-0.054001
1520,194.500000,-0.0544712
1521,194.700000,-0.0549077
1522,194.900000,-0.055351
1523,195.100000,-0.0558208
1524,195.200000,-0.0563268
1525,195.400000,-0.0568616
1526,195.600000,-0.0573681
1527,195.800000,-0.057845
1528,195.900000,-0.0583163
1529,196.100000,-0.0587583
1530,196.300000,-0.0591932
1531,196.500000,-0.0596237
1532,196.700000,-0.0600413
1533,196.800000,-0.0604405
1534,197.000000,-0.0608392
1535,197.200000,-0.061238
1536,197.300000,-0.0616387
1537,197.500000,-0.062071
1538,197.700000,-0.0625527
1539,197.900000,-0.0630298
1540,198.100000,-0.0634939
1541,198.200000,-0.0639524
1542,198.400000,-0.064405
1543,198.600000,-0.0648123
1544,198.800000,-0.0651909
1545,198.900000,-0.0655487
1546,199.100000,-0.065914
1547,199.300000,-0.066286
1548,199.500000,-0.0666739
1549,199.600000,-0.0670712
1550,199.800000,-0.0674789
1551,200.000000,-0.0679174
1552,200.200000,-0.0683952
1553,200.300000,-0.068878
1554,200.500000,-0.0693295
1555,200.700000,-0.0697574
1556,200.900000,-0.0701866
1557,201.000000,-0.0706333
1558,201.200000,-0.071095
1559,201.400000,-0.0715747
1560,201.600000,-0.0720711
1561,201.800000,-0.072629
1562,201.900000,-0.0732154
1563,202.100000,-0.0737754
1564,202.300000,-0.0742624
1565,202.500000,-0.0747137
1566,202.600000,-0.0751391
1567,202.800000,-0.0755514
1568,203.000000,-0.0759872
1569,203.200000,-0.0765025
1570,203.300000,-0.0770993
1571,203.500000,-0.0776806
1572,203.700000,-0.0781764
1573,203.900000,-0.0785502
1574,204.000000,-0.0788432
1575,204.200000,-0.0791367
1576,204.400000,-0.0794447
1577,204.600000,-0.0797601
1578,204.800000,-0.0800863
1579,204.900000,-0.0803923
1580,205.100000,-0.0806643
1581,205.300000,-0.0808801
1582,205.500000,-0.081104
1583,205.600000,-0.0813686
1584,205.800000,-0.0817184
1585,206.000000,-0.0821926
1586,206.200000,-0.0827749
1587,206.300000,-0.0833933
1588,206.500000,-0.0839986
1589,206.700000,-0.0845525
1590,206.900000,-0.0850816
1591,207.000000,-0.085656
1592,207.200000,-0.0862811
1593,207.400000,-0.086919
1594,207.600000,-0.087522
1595,207.800000,-0.0880704
1596,207.900000,-0.0885749
1597,208.100000,-0.0890153
1598,208.300000,-0.0894195
1599,208.500000,-0.0898442
1600,208.600000,-0.0902836
1601,208.800000,-0.0907917
1602,209.000000,-0.0913295
1603,209.100000,-0.0918807
1604,209.300000,-0.0924208
1605,209.500000,-0.0929448
1606,209.700000,-0.0934641
1607,209.900000,-0.0939838
1608,210.000000,-0.0945322
1609,210.200000,-0.0950837
1610,210.400000,-0.095622
1611,210.600000,-0.0960942
1612,210.800000,-0.0964915
1613,210.900000,-0.0968821
1614,211.100000,-0.0972719
1615,211.300000,-0.0977045
1616,211.400000,-0.0981791
1617,211.600000,-0.0987174
1618,211.800000,-0.0992492
1619,212.000000,-0.0997929
1620,212.100000,-0.10036
1621,212.300000,-0.101019
1622,212.500000,-0.101705
1623,212.600000,-0.102356
1624,212.800000,-0.102981
1625,213.000000,-0.103577
1626,213.200000,-0.104218
1627,213.300000,-0.104864
1628,213.500000,-0.105522
1629,213.700000,-0.106168
1630,213.800000,-0.106849
1631,214.000000,-0.107573
1632,214.200000,-0.108304
1633,214.400000,-0.109001
1634,214.500000,-0.10963
1635,214.700000,-0.110181
1636,214.900000,-0.110638
1637,215.000000,-0.111038
1638,215.200000,-0.111423
1639,215.400000,-0.111853
1640,215.600000,-0.112324
1641,215.700000,-0.112852
1642,215.900000,-0.113424
1643,216.100000,-0.114012
1644,216.200000,-0.114622
1645,216.400000,-0.115239
1646,216.600000,-0.115861
1647,216.800000,-0.116483
1648,216.900000,-0.11712
1649,217.100000,-0.117753
1650,217.300000,-0.118348
1651,217.500000,-0.118897
1652,217.600000,-0.119429
1653,217.800000,-0.120027
1654,218.000000,-0.120667
1655,218.100000,-0.12134
1656,218.300000,-0.121987
1657,218.500000,-0.122551
1658,218.700000,-0.123036
1659,218.800000,-0.123487
1660,219.000000,-0.123971
1661,219.200000,-0.124559
1662,219.300000,-0.125203
1663,219.500000,-0.125877
1664,219.700000,-0.126586
1665,219.900000,-0.127329
1666,220.000000,-0.128034
1667,220.200000,-0.128694
1668,220.400000,-0.129276
1669,220.500000,-0.129824
1670,220.700000,-0.130383
1671,220.900000,-0.130959
1672,221.100000,-0.131553
1673,221.200000,-0.132124
1674,221.400000,-0.132666
1675,221.600000,-0.133196
1676,221.700000,-0.133744
1677,221.900000,-0.134303
1678,222.100000,-0.134875
1679,222.300000,-0.135493
1680,222.400000,-0.136147
1681,222.600000,-0.136863
1682,222.800000,-0.137581
1683,223.000000,-0.138321
1684,223.100000,-0.139078
1685,223.300000,-0.139806
1686,223.500000,-0.140452
1687,223.700000,-0.14104
1688,223.800000,-0.141627
1689,224.000000,-0.142253
1690,224.200000,-0.142918
1691,224.300000,-0.143599
1692,224.500000,-0.14432
1693,224.700000,-0.145101
1694,224.800000,-0.145914
1695,225.000000,-0.146691
1696,225.200000,-0.147377
1697,225.400000,-0.148045
1698,225.500000,-0.148731
1699,225.700000,-0.149459
1700,225.900000,-0.150158
1701,226.100000,-0.150833
1702,226.200000,-0.151472
1703,226.400000,-0.15207
1704,226.600000,-0.152604
1705,226.700000,-0.153095
1706,226.900000,-0.153594
1707,227.100000,-0.154158
1708,227.300000,-0.154796
1709,227.400000,-0.155479
1710,227.600000,-0.156139
1711,227.800000,-0.15679
1712,227.900000,-0.157417
1713,228.100000,-0.158032
1714,228.300000,-0.158704
1715,228.500000,-0.159457
1716,228.600000,-0.160209
1717,228.800000,-0.160943
1718,229.000000,-0.161682
1719,229.100000,-0.162433
1720,229.300000,-0.163148
1721,229.500000,-0.163841
1722,229.700000,-0.164568
1723,229.800000,-0.165299
1724,230.000000,-0.166014
1725,230.200000,-0.16666
1726,230.300000,-0.167199
1727,230.500000,-0.167664
1728,230.700000,-0.16813
1729,230.900000,-0.168645
1730,231.000000,-0.169243
1731,231.200000,-0.169915
1732,231.400000,-0.170611
1733,231.500000,-0.171255
1734,231.700000,-0.171843
1735,231.900000,-0.172354
1736,232.100000,-0.172809
1737,232.200000,-0.173282
1738,232.400000,-0.173877
1739,232.600000,-0.174567
1740,232.700000,-0.17527
1741,232.900000,-0.175965
1742,233.100000,-0.176695
1743,233.200000,-0.177499
1744,233.400000,-0.17831
1745,233.600000,-0.179087
1746,233.800000,-0.179831
1747,233.900000,-0.180541
1748,234.100000,-0.181253
1749,234.300000,-0.181905
1750,234.500000,-0.182571
1751,234.600000,-0.183239
1752,234.800000,-0.184016
1753,234.900000,-0.184858
1754,235.100000,-0.185719
1755,235.300000,-0.186567
1756,235.500000,-0.187375
1757,235.600000,-0.188139
1758,235.800000,-0.188898
1759,236.000000,-0.189715
1760,236.100000,-0.19057
1761,236.300000,-0.191411
1762,236.500000,-0.19219
1763,236.700000,-0.192871
1764,236.800000,-0.193456
1765,237.000000,-0.194035
1766,237.200000,-0.194643
1767,237.300000,-0.195258
1768,237.500000,-0.19585
1769,237.700000,-0.196413
1770,237.900000,-0.196941
1771,238.000000,-0.19742
1772,238.200000,-0.197879
1773,238.400000,-0.198405
1774,238.600000,-0.198998
1775,238.700000,-0.199636
1776,238.900000,-0.200308
1777,239.100000,-0.201011
1778,239.200000,-0.2017
1779,239.400000,-0.202286
1780,239.600000,-0.20276
1781,239.800000,-0.203178
1782,239.900000,-0.203612
1783,240.100000,-0.204095
1784,240.300000,-0.204636
1785,240.500000,-0.205212
1786,240.600000,-0.205786
1787,240.800000,-0.206356
1788,241.000000,-0.206906
1789,241.100000,-0.207459
1790,241.300000,-0.208019
1791,241.500000,-0.208617
1792,241.700000,-0.209222
1793,241.800000,-0.209854
1794,242.000000,-0.210462
1795,242.200000,-0.211086
1796,242.400000,-0.211682
1797,242.500000,-0.21228
1798,242.700000,-0.212887
1799,242.900000,-0.213521
1800,243.000000,-0.214168
1801,243.200000,-0.214777
1802,243.400000,-0.215285
1803,243.600000,-0.215753
1804,243.700000,-0.216237
1805,243.900000,-0.216774
1806,244.100000,-0.217406
1807,244.300000,-0.218145
1808,244.400000,-0.218939
1809,244.600000,-0.219731
1810,244.800000,-0.220484
1811,244.900000,-0.221162
1812,245.100000,-0.221836
1813,245.300000,-0.222532
1814,245.500000,-0.223302
1815,245.600000,-0.224118
1816,245.800000,-0.224938
1817,246.000000,-0.225731
1818,246.100000,-0.226444
1819,246.300000,-0.22711
1820,246.500000,-0.227774
1821,246.600000,-0.228467
1822,246.800000,-0.229229
1823,247.000000,-0.230016
1824,247.200000,-0.230782
1825,247.300000,-0.23149
1826,247.500000,-0.232127
1827,247.700000,-0.23269
1828,247.800000,-0.233205
1829,248.000000,-0.233689
1830,248.200000,-0.23419
1831,248.400000,-0.234763
1832,248.500000,-0.235398
1833,248.700000,-0.236039
1834,248.900000,-0.236675
1835,249.000000,-0.237265
1836,249.200000,-0.237823
1837,249.400000,-0.238354
1838,249.600000,-0.238855
1839,249.700000,-0.23932
1840,249.900000,-0.239738
1841,250.100000,-0.240137
1842,250.200000,-0.240569
1843,250.400000,-0.241078
1844,250.600000,-0.24167
1845,250.700000,-0.2423
1846,250.900000,-0.242932
1847,251.100000,-0.243566
1848,251.300000,-0.244237
1849,251.400000,-0.244918
1850,251.600000,-0.24562
1851,251.800000,-0.246321
1852,251.900000,-0.247027
1853,252.100000,-0.247715
1854,252.300000,-0.248391
1855,252.500000,-0.249053
1856,252.600000,-0.249649
1857,252.800000,-0.250223
1858,253.000000,-0.250829
1859,253.100000,-0.251451
1860,253.300000,-0.252084
1861,253.500000,-0.252705
1862,253.700000,-0.25331
1863,253.800000,-0.253859
1864,254.000000,-0.254407
1865,254.200000,-0.254977
1866,254.300000,-0.25554
1867,254.500000,-0.256082
1868,254.700000,-0.256651
1869,254.900000,-0.25725
1870,255.000000,-0.257863
1871,255.200000,-0.258487
1872,255.400000,-0.259089
1873,255.500000,-0.259658
1874,255.700000,-0.260252
1875,255.900000,-0.260903
1876,256.000000,-0.261597
1877,256.200000,-0.262298
1878,256.400000,-0.262952
1879,256.600000,-0.263534
1880,256.700000,-0.264098
1881,256.900000,-0.264675
1882,257.100000,-0.265297
1883,257.300000,-0.265932
1884,257.400000,-0.266583
1885,257.600000,-0.267239
1886,257.800000,-0.267891
1887,258.000000,-0.268483
1888,258.100000,-0.269016
1889,258.300000,-0.269494
1890,258.500000,-0.270006
1891,258.600000,-0.270528
1892,258.800000,-0.271069
1893,259.000000,-0.271667
1894,259.100000,-0.272345
1895,259.300000,-0.273058
1896,259.500000,-0.273792
1897,259.600000,-0.274527
1898,259.800000,-0.275261
1899,260.000000,-0.275967
1900,260.100000,-0.276577
1901,260.300000,-0.277071
1902,260.500000,-0.277524
1903,260.600000,-0.277981
1904,260.800000,-0.278463
1905,261.000000,-0.278954
1906,261.100000,-0.279484
1907,261.300000,-0.280027
1908,261.500000,-0.280569
1909,261.700000,-0.281063
1910,261.800000,-0.281543
1911,262.000000,-0.282043
1912,262.200000,-0.28258
1913,262.400000,-0.283128
1914,262.500000,-0.283663
1915,262.700000,-0.284183
1916,262.900000,-0.284697
1917,263.000000,-0.285199
1918,263.200000,-0.285712
1919,263.400000,-0.286211
1920,263.500000,-0.2867
1921,263.700000,-0.287173
1922,263.900000,-0.287638
1923,264.000000,-0.288124
1924,264.200000,-0.288667
1925,264.400000,-0.289244
1926,264.500000,-0.289845
1927,264.700000,-0.290458
1928,264.900000,-0.291146
1929,265.000000,-0.291879
1930,265.200000,-0.292615
1931,265.400000,-0.293326
1932,265.500000,-0.293963
1933,265.700000,-0.294513
1934,265.900000,-0.295053
1935,266.100000,-0.295658
1936,266.200000,-0.2963
1937,266.400000,-0.296939
1938,266.600000,-0.297557
1939,266.700000,-0.298131
1940,266.900000,-0.298596
1941,267.100000,-0.299008
1942,267.200000,-0.299403
1943,267.400000,-0.299819
1944,267.600000,-0.300243
1945,267.700000,-0.300638
1946,267.900000,-0.300995
1947,268.100000,-0.301379
1948,268.200000,-0.301821
1949,268.400000,-0.302364
1950,268.600000,-0.302912
1951,268.700000,-0.303426
1952,268.900000,-0.303919
1953,269.100000,-0.30443
1954,269.200000,-0.304909
1955,269.400000,-0.305333
1956,269.600000,-0.305678
1957,269.800000,-0.306018
1958,269.900000,-0.306407
1959,270.100000,-0.306904
1960,270.300000,-0.307461
1961,270.400000,-0.308066
1962,270.600000,-0.308691
1963,270.800000,-0.309348
1964,270.900000,-0.310003
1965,271.100000,-0.310739
1966,271.300000,-0.311561
1967,271.400000,-0.312409
1968,271.600000,-0.313254
1969,271.800000,-0.314082
1970,272.000000,-0.314741
1971,272.100000,-0.315294
1972,272.300000,-0.315729
1973,272.500000,-0.316145
1974,272.600000,-0.316561
1975,272.800000,-0.31702
1976,273.000000,-0.317436
1977,273.100000,-0.31783
1978,273.300000,-0.318238
1979,273.500000,-0.318727
1980,273.600000,-0.319315
1981,273.800000,-0.319976
1982,274.000000,-0.320649
1983,274.100000,-0.32131
1984,274.300000,-0.321869
1985,274.500000,-0.322374
1986,274.600000,-0.322826
1987,274.800000,-0.323286
1988,275.000000,-0.32376
1989,275.200000,-0.324285
1990,275.300000,-0.324818
1991,275.500000,-0.325361
1992,275.700000,-0.325877
1993,275.800000,-0.326332
1994,276.000000,-0.326684
1995,276.200000,-0.326998
1996,276.300000,-0.327335
1997,276.500000,-0.327754
1998,276.700000,-0.32825
1999,276.800000,-0.328843
2000,277.000000,-0.329486
2001,277.200000,-0.330141
2002,277.400000,-0.330787
2003,277.500000,-0.331435
2004,277.700000,-0.332094
2005,277.900000,-0.332813
2006,278.000000,-0.333582
2007,278.200000,-0.334384
2008,278.400000,-0.335188
2009,278.500000,-0.336014
2010,278.700000,-0.336775
2011,278.900000,-0.337498
2012,279.000000,-0.338196
2013,279.200000,-0.338893
2014,279.400000,-0.339592
2015,279.600000,-0.340302
2016,279.700000,-0.340966
2017,279.900000,-0.341571
2018,280.100000,-0.342159
2019,280.200000,-0.342797
2020,280.400000,-0.343487
2021,280.600000,-0.344216
2022,280.700000,-0.344912
2023,280.900000,-0.345548
2024,281.100000,-0.346131
2025,281.300000,-0.346698
2026,281.400000,-0.347248
2027,281.600000,-0.347817
2028,281.800000,-0.348424
2029,281.900000,-0.349096
2030,282.100000,-0.349769
2031,282.300000,-0.350479
2032,282.500000,-0.351166
2033,282.600000,-0.35187
2034,282.800000,-0.352571
2035,283.000000,-0.3533
2036,283.100000,-0.354039
2037,283.300000,-0.354809
2038,283.500000,-0.355589
2039,283.600000,-0.356359
2040,283.800000,-0.357094
2041,284.000000,-0.357856
2042,284.100000,-0.358718
2043,284.300000,-0.359717
2044,284.500000,-0.360814
2045,284.700000,-0.361996
2046,284.800000,-0.363156
2047,285.000000,-0.364297
2048,285.200000,-0.365417
2049,285.300000,-0.366507
2050,285.500000,-0.367566
2051,285.700000,-0.368661
2052,285.800000,-0.369772
2053,286.000000,-0.370933
2054,286.200000,-0.372091
2055,286.300000,-0.373272
2056,286.500000,-0.374516
2057,286.700000,-0.375823
2058,286.900000,-0.377163
2059,287.000000,-0.378499
2060,287.200000,-0.379821
2061,287.400000,-0.381062
2062,287.500000,-0.382255
2063,287.700000,-0.383436
2064,287.900000,-0.384613
2065,288.000000,-0.385778
2066,288.200000,-0.386972
2067,288.400000,-0.388188
2068,288.500000,-0.389405
2069,288.700000,-0.390585
2070,288.900000,-0.391686
2071,289.000000,-0.392808
2072,289.200000,-0.394002
2073,289.400000,-0.395266
2074,289.500000,-0.396546
2075,289.700000,-0.397856
2076,289.900000,-0.399098
2077,290.000000,-0.40027
2078,290.200000,-0.401374
2079,290.400000,-0.402464
2080,290.500000,-0.403556
2081,290.700000,-0.404628
2082,290.900000,-0.405662
2083,291.000000,-0.40672
2084,291.200000,-0.407782
2085,291.400000,-0.408822
2086,291.600000,-0.409836
2087,291.700000,-0.410847
2088,291.900000,-0.411855
2089,292.100000,-0.412861
2090,292.200000,-0.41392
2091,292.400000,-0.415
2092,292.600000,-0.41604
2093,292.700000,-0.417072
2094,292.900000,-0.418116
2095,293.100000,-0.419239
2096,293.200000,-0.420444
2097,293.400000,-0.421748
2098,293.600000,-0.423112
2099,293.700000,-0.424475
2100,293.900000,-0.425787
2101,294.100000,-0.427083
2102,294.200000,-0.428388
2103,294.400000,-0.429768
2104,294.600000,-0.431206
2105,294.800000,-0.432715
2106,294.900000,-0.434176
2107,295.100000,-0.435541
2108,295.300000,-0.43681
2109,295.400000,-0.43804
2110,295.600000,-0.439301
2111,295.800000,-0.440611
2112,295.900000,-0.441942
2113,296.100000,-0.443275
2114,296.300000,-0.44457
2115,296.500000,-0.445813
2116,296.600000,-0.447018
2117,296.800000,-0.448227
2118,297.000000,-0.449483
2119,297.100000,-0.450779
2120,297.300000,-0.452074
2121,297.500000,-0.453329
2122,297.600000,-0.454516
2123,297.800000,-0.455711
2124,298.000000,-0.456932
2125,298.200000,-0.458212
2126,298.300000,-0.459533
2127,298.500000,-0.460902
2128,298.700000,-0.462289
2129,298.800000,-0.463688
2130,299.000000,-0.46509
2131,299.200000,-0.466458
2132,299.300000,-0.467816
2133,299.500000,-0.469213
2134,299.700000,-0.470627
2135,299.800000,-0.47201
2136,300.000000,-0.473396
2137,300.200000,-0.474799
2138,300.300000,-0.476173
2139,300.500000,-0.477485
2140,300.700000,-0.478767
2141,300.900000,-0.480073
2142,301.000000,-0.481455
2143,301.200000,-0.482887
2144,301.400000,-0.484293
2145,301.600000,-0.485615
2146,301.700000,-0.486826
2147,301.900000,-0.487995
2148,302.100000,-0.489207
2149,302.200000,-0.490523
2150,302.400000,-0.491898
2151,302.600000,-0.493298
2152,302.700000,-0.494711
2153,302.900000,-0.496115
2154,303.100000,-0.497525
2155,303.200000,-0.498998
2156,303.400000,-0.500514
2157,303.600000,-0.502034
2158,303.800000,-0.503549
2159,303.900000,-0.505018
2160,304.100000,-0.50645
2161,304.300000,-0.507865
2162,304.400000,-0.509293
2163,304.600000,-0.510753
2164,304.800000,-0.512275
2165,305.000000,-0.513839
2166,305.100000,-0.515333
2167,305.300000,-0.516721
2168,305.500000,-0.518091
2169,305.600000,-0.519488
2170,305.800000,-0.520938
2171,306.000000,-0.522411
2172,306.100000,-0.523897
2173,306.300000,-0.525401
2174,306.500000,-0.526901
2175,306.700000,-0.52836
2176,306.800000,-0.529764
2177,307.000000,-0.531151
2178,307.200000,-0.532522
2179,307.300000,-0.533891
2180,307.500000,-0.535246
2181,307.700000,-0.536603
2182,307.900000,-0.537975
2183,308.000000,-0.539377
2184,308.200000,-0.540782
2185,308.400000,-0.542202
2186,308.500000,-0.543666
2187,308.700000,-0.545229
2188,308.900000,-0.546833
2189,309.000000,-0.548464
2190,309.200000,-0.550062
2191,309.400000,-0.551617
2192,309.500000,-0.553146
2193,309.700000,-0.554707
2194,309.900000,-0.556254
2195,310.100000,-0.557799
2196,310.200000,-0.559298
2197,310.400000,-0.560779
2198,310.600000,-0.562252
2199,310.700000,-0.563711
2200,310.900000,-0.565123
2201,311.100000,-0.566554
2202,311.200000,-0.568074
2203,311.400000,-0.569654
2204,311.600000,-0.57125
2205,311.800000,-0.572758
2206,311.900000,-0.574198
2207,312.100000,-0.575622
2208,312.300000,-0.577075
2209,312.400000,-0.578579
2210,312.600000,-0.580131
2211,312.700000,-0.581815
2212,312.900000,-0.583613
2213,313.100000,-0.585421
2214,313.300000,-0.587184
2215,313.400000,-0.588896
2216,313.600000,-0.59059
2217,313.800000,-0.592292
2218,313.900000,-0.594029
2219,314.100000,-0.595819
2220,314.300000,-0.59761
2221,314.400000,-0.599382
2222,314.600000,-0.601128
2223,314.800000,-0.60288
2224,314.900000,-0.604631
2225,315.100000,-0.606384
2226,315.300000,-0.608123
2227,315.400000,-0.609821
2228,315.600000,-0.611498
2229,315.800000,-0.613174
2230,315.900000,-0.614852
2231,316.100000,-0.616595
2232,316.300000,-0.618459
2233,316.400000,-0.620451
2234,316.600000,-0.622502
2235,316.700000,-0.624533
2236,316.900000,-0.626516
2237,317.100000,-0.628498
2238,317.200000,-0.630474
2239,317.400000,-0.632451
2240,317.600000,-0.634443
2241,317.800000,-0.63646
2242,317.900000,-0.638516
2243,318.100000,-0.640641
2244,318.300000,-0.642784
2245,318.400000,-0.644891
2246,318.600000,-0.646986
2247,318.800000,-0.649135
2248,318.900000,-0.651373
2249,319.100000,-0.653655
2250,319.300000,-0.655918
2251,319.400000,-0.658149
2252,319.600000,-0.660387
2253,319.800000,-0.662678
2254,319.900000,-0.66508
2255,320.100000,-0.667565
2256,320.300000,-0.67003
2257,320.400000,-0.672469
2258,320.600000,-0.67487
2259,320.800000,-0.677256
2260,320.900000,-0.67965
2261,321.100000,-0.682098
2262,321.300000,-0.684609
2263,321.400000,-0.68719
2264,321.600000,-0.689806
2265,321.800000,-0.692464
2266,321.900000,-0.695176
2267,322.100000,-0.697963
2268,322.300000,-0.70078
2269,322.400000,-0.703596
2270,322.600000,-0.706424
2271,322.800000,-0.709311
2272,322.900000,-0.712226
2273,323.100000,-0.715166
2274,323.300000,-0.718072
2275,323.400000,-0.720935
2276,323.600000,-0.723794
2277,323.800000,-0.726763
2278,323.900000,-0.729884
2279,324.100000,-0.73315
2280,324.300000,-0.736446
2281,324.400000,-0.739713
2282,324.600000,-0.74293
2283,324.800000,-0.746115
2284,324.900000,-0.749286
2285,325.100000,-0.752531
2286,325.300000,-0.755896
2287,325.400000,-0.75939
2288,325.600000,-0.762929
2289,325.800000,-0.766442
2290,326.000000,-0.769917
2291,326.100000,-0.773416
2292,326.300000,-0.776972
2293,326.400000,-0.780619
2294,326.600000,-0.784373
2295,326.800000,-0.788257
2296,326.900000,-0.792217
2297,327.100000,-0.79621
2298,327.300000,-0.80022
2299,327.500000,-0.804307
2300,327.600000,-0.808451
2301,327.800000,-0.812669
2302,328.000000,-0.81696
2303,328.100000,-0.821293
2304,328.300000,-0.825672
2305,328.500000,-0.83007
2306,328.600000,-0.834497
2307,328.800000,-0.839001
2308,329.000000,-0.843564
2309,329.100000,-0.84819
2310,329.300000,-0.852939
2311,329.500000,-0.857836
2312,329.600000,-0.862888
2313,329.800000,-0.868039
2314,330.000000,-0.873189
2315,330.100000,-0.878352
2316,330.300000,-0.883599
2317,330.500000,-0.888971
2318,330.600000,-0.894442
2319,330.800000,-0.899956
2320,331.000000,-0.905433
2321,331.100000,-0.910982
2322,331.300000,-0.916645
2323,331.500000,-0.922382
2324,331.600000,-0.928248
2325,331.800000,-0.934186
2326,332.000000,-0.940127
2327,332.100000,-0.94607
2328,332.300000,-0.952053
2329,332.500000,-0.958122
2330,332.700000,-0.964252
2331,332.800000,-0.970477
2332,333.000000,-0.976827
2333,333.200000,-0.983271
2334,333.300000,-0.989794
2335,333.500000,-0.996402
2336,333.700000,-1.00306
2337,333.800000,-1.00977
2338,334.000000,-1.01653
2339,334.200000,-1.0234
2340,334.300000,-1.03039
2341,334.500000,-1.03747
2342,334.700000,-1.04464
2343,334.800000,-1.05188
2344,335.000000,-1.0592
2345,335.200000,-1.0666
2346,335.400000,-1.07406
2347,335.500000,-1.08156
2348,335.700000,-1.08912
2349,335.900000,-1.09678
2350,336.000000,-1.10456
2351,336.200000,-1.1125
2352,336.400000,-1.12055
2353,336.500000,-1.12875
2354,336.700000,-1.1371
2355,336.900000,-1.14561
2356,337.000000,-1.15433
2357,337.200000,-1.16318
2358,337.400000,-1.1721
2359,337.500000,-1.18106
2360,337.700000,-1.1901
2361,337.900000,-1.19925
2362,338.000000,-1.20859
2363,338.200000,-1.21813
2364,338.400000,-1.2278
2365,338.500000,-1.23748
2366,338.700000,-1.24718
2367,338.900000,-1.25694
2368,339.000000,-1.26682
2369,339.200000,-1.2768
2370,339.400000,-1.28689
2371,339.500000,-1.29713
2372,339.700000,-1.30751
2373,339.900000,-1.31799
2374,340.000000,-1.32862
2375,340.200000,-1.3394
2376,340.400000,-1.35036
2377,340.500000,-1.36148
2378,340.700000,-1.37278
2379,340.900000,-1.38424
2380,341.000000,-1.39589
2381,341.200000,-1.40769
2382,341.400000,-1.41955
2383,341.500000,-1.43146
2384,341.700000,-1.44348
2385,341.900000,-1.45565
2386,342.000000,-1.46804
2387,342.200000,-1.48059
2388,342.400000,-1.49325
2389,342.500000,-1.50608
2390,342.700000,-1.51906
2391,342.900000,-1.5322
2392,343.000000,-1.5455
2393,343.200000,-1.55894
2394,343.400000,-1.57255
2395,343.500000,-1.58629
2396,343.700000,-1.60016
2397,343.900000,-1.6142
2398,344.000000,-1.62842
2399,344.200000,-1.64287
2400,344.300000,-1.65751
2401,344.500000,-1.67236
2402,344.700000,-1.68736
2403,344.900000,-1.70238
2404,345.000000,-1.71742
2405,345.200000,-1.73256
2406,345.400000,-1.74781
2407,345.500000,-1.76318
2408,345.700000,-1.77875
2409,345.900000,-1.79456
2410,346.000000,-1.81061
2411,346.200000,-1.8269
2412,346.400000,-1.84339
2413,346.500000,-1.86006
2414,346.700000,-1.87698
2415,346.900000,-1.89412
2416,347.000000,-1.91136
2417,347.200000,-1.92867
2418,347.400000,-1.94601
2419,347.500000,-1.96349
2420,347.700000,-1.98113
2421,347.900000,-1.99888
2422,348.000000,-2.01672
2423,348.200000,-2.03471
2424,348.400000,-2.05291
2425,348.500000,-2.07134
2426,348.700000,-2.08989
2427,348.900000,-2.10854
2428,349.000000,-2.12726
2429,349.200000,-2.14614
2430,349.400000,-2.16522
2431,349.500000,-2.18452
2432,349.700000,-2.20403
2433,349.900000,-2.22368
2434,350.000000,-2.24349
2435,350.200000,-2.2635
2436,350.400000,-2.28373
2437,350.500000,-2.30419
2438,350.700000,-2.32484
2439,350.900000,-2.3457
2440,351.000000,-2.36677
2441,351.200000,-2.38801
2442,351.400000,-2.40937
2443,351.500000,-2.43078
2444,351.700000,-2.45229
2445,351.900000,-2.47397
2446,352.000000,-2.49585
2447,352.200000,-2.51792
2448,352.400000,-2.54013
2449,352.500000,-2.56241
2450,352.700000,-2.58478
2451,352.900000,-2.60725
2452,353.000000,-2.62989
2453,353.200000,-2.65272
2454,353.400000,-2.67577
2455,353.500000,-2.69903
2456,353.700000,-2.72251
2457,353.800000,-2.74624
2458,354.000000,-2.77019
2459,354.200000,-2.79437
2460,354.300000,-2.81872
2461,354.500000,-2.84323
2462,354.700000,-2.86788
2463,354.800000,-2.89269
2464,355.000000,-2.91763
2465,355.200000,-2.94272
2466,355.300000,-2.96794
2467,355.500000,-2.99332
2468,355.700000,-3.0189
2469,355.800000,-3.04471
2470,356.000000,-3.07069
2471,356.200000,-3.09687
2472,356.300000,-3.1232
2473,356.500000,-3.1497
2474,356.700000,-3.17633
2475,356.800000,-3.20314
2476,357.000000,-3.23018
2477,357.100000,-3.25748
2478,357.300000,-3.28498
2479,357.500000,-3.31264
2480,357.600000,-3.34045
2481,357.800000,-3.36842
2482,358.000000,-3.39657
2483,358.100000,-3.42483
2484,358.300000,-3.45316
2485,358.500000,-3.4815
2486,358.600000,-3.50992
2487,358.800000,-3.53849
2488,359.000000,-3.56722
2489,359.100000,-3.59612
2490,359.300000,-3.62508
2491,359.500000,-3.65412
2492,359.600000,-3.68328
2493,359.800000,-3.71266
2494,359.900000,-3.74238
2495,360.100000,-3.77249
2496,360.300000,-3.8029
2497,360.400000,-3.83361
2498,360.600000,-3.8646
2499,360.800000,-3.89583
2500,360.900000,-3.92724
2501,361.100000,-3.95871
2502,361.300000,-3.99014
2503,361.400000,-4.02144
2504,361.600000,-4.05253
2505,361.800000,-4.08338
2506,361.900000,-4.11393
2507,362.100000,-4.14416
2508,362.300000,-4.17405
2509,362.400000,-4.20368
2510,362.600000,-4.23311
2511,362.800000,-4.26235
2512,362.900000,-4.29143
2513,363.100000,-4.3204
2514,363.300000,-4.34927
2515,363.400000,-4.3781
2516,363.600000,-4.40684
2517,363.700000,-4.43549
2518,363.900000,-4.46399
2519,364.100000,-4.49242
2520,364.200000,-4.52079
2521,364.400000,-4.5492
2522,364.600000,-4.57765
2523,364.700000,-4.60616
2524,364.900000,-4.6347
2525,365.100000,-4.66323
2526,365.200000,-4.69173
2527,365.400000,-4.72011
2528,365.600000,-4.74834
2529,365.700000,-4.7765
2530,365.900000,-4.80464
2531,366.100000,-4.83278
2532,366.200000,-4.86094
2533,366.400000,-4.88907
2534,366.500000,-4.91717
2535,366.700000,-4.94539
2536,366.900000,-4.97378
2537,367.000000,-5.00243
2538,367.200000,-5.03126
2539,367.400000,-5.06022
2540,367.500000,-5.08921
2541,367.700000,-5.11828
2542,367.900000,-5.14732
2543,368.000000,-5.1763
2544,368.200000,-5.20517
2545,368.300000,-5.23386
2546,368.500000,-5.26239
2547,368.700000,-5.29079
2548,368.800000,-5.31913
2549,369.000000,-5.3474
2550,369.100000,-5.37559
2551,369.300000,-5.40363
2552,369.500000,-5.43158
2553,369.600000,-5.45942
2554,369.800000,-5.48706
2555,370.000000,-5.51436
2556,370.100000,-5.54132
2557,370.300000,-5.56802
2558,370.500000,-5.59449
2559,370.600000,-5.62089
2560,370.800000,-5.6473
2561,370.900000,-5.67368
2562,371.100000,-5.70007
2563,371.300000,-5.72644
2564,371.500000,-5.75264
2565,371.600000,-5.77856
2566,371.800000,-5.80418
2567,371.900000,-5.82965
2568,372.100000,-5.85506
2569,372.300000,-5.88043
2570,372.400000,-5.90581
2571,372.600000,-5.93122
2572,372.700000,-5.95675
2573,372.900000,-5.98232
2574,373.100000,-6.008
2575,373.200000,-6.03375
2576,373.400000,-6.05941
2577,373.500000,-6.08485
2578,373.700000,-6.11007
2579,373.900000,-6.13503
2580,374.000000,-6.15967
2581,374.200000,-6.18408
2582,374.400000,-6.2083
2583,374.500000,-6.23241
2584,374.700000,-6.25646
2585,374.900000,-6.28057
2586,375.000000,-6.30471
2587,375.200000,-6.32893
2588,375.400000,-6.35317
2589,375.500000,-6.37738
2590,375.700000,-6.40155
2591,375.800000,-6.42566
2592,376.000000,-6.44966
2593,376.200000,-6.47348
2594,376.300000,-6.49704
2595,376.500000,-6.52031
2596,376.700000,-6.54336
2597,376.800000,-6.56637
2598,377.000000,-6.58939
2599,377.100000,-6.61244
2600,377.300000,-6.63557
2601,377.500000,-6.65879
2602,377.600000,-6.682
2603,377.800000,-6.70513
2604,378.000000,-6.72802
2605,378.100000,-6.75056
2606,378.300000,-6.77272
2607,378.500000,-6.79453
2608,378.600000,-6.81612
2609,378.800000,-6.83761
2610,378.900000,-6.85903
2611,379.100000,-6.88033
2612,379.300000,-6.90143
2613,379.400000,-6.9224
2614,379.600000,-6.94315
2615,379.800000,-6.96362
2616,379.900000,-6.98384
2617,380.100000,-7.00395
2618,380.300000,-7.02408
2619,380.400000,-7.04419
2620,380.600000,-7.06422
2621,380.700000,-7.0841
2622,380.900000,-7.1038
2623,381.100000,-7.12329
2624,381.200000,-7.14255
2625,381.400000,-7.16155
2626,381.600000,-7.18026
2627,381.700000,-7.19877
2628,381.900000,-7.21703
2629,382.100000,-7.23511
2630,382.200000,-7.25302
2631,382.400000,-7.27083
2632,382.600000,-7.2885
2633,382.700000,-7.30605
2634,382.900000,-7.32342
2635,383.000000,-7.34061
2636,383.200000,-7.35758
2637,383.400000,-7.37429
2638,383.500000,-7.39079
2639,383.700000,-7.40712
2640,383.900000,-7.42333
2641,384.000000,-7.43941
2642,384.200000,-7.45532
2643,384.400000,-7.47095
2644,384.500000,-7.48626
2645,384.700000,-7.50137
2646,384.900000,-7.51629
2647,385.000000,-7.53103
2648,385.200000,-7.54563
2649,385.300000,-7.56002
2650,385.500000,-7.57416
2651,385.700000,-7.5881
2652,385.800000,-7.60185
2653,386.000000,-7.61544
2654,386.200000,-7.62886
2655,386.300000,-7.64208
2656,386.500000,-7.65506
2657,386.600000,-7.66783
2658,386.800000,-7.68041
2659,387.000000,-7.69283
2660,387.100000,-7.70512
2661,387.300000,-7.71724
2662,387.500000,-7.72921
2663,387.600000,-7.74104
2664,387.800000,-7.75277
2665,388.000000,-7.7643
2666,388.100000,-7.77563
2667,388.300000,-7.7868
2668,388.500000,-7.79784
2669,388.600000,-7.80877
2670,388.800000,-7.81964
2671,388.900000,-7.83045
2672,389.100000,-7.84117
2673,389.300000,-7.85179
2674,389.400000,-7.86232
2675,389.600000,-7.87275
2676,389.700000,-7.88308
2677,389.900000,-7.89331
2678,390.100000,-7.90343
2679,390.200000,-7.91348
2680,390.400000,-7.9234
2681,390.600000,-7.93317
2682,390.700000,-7.94285
2683,390.900000,-7.95241
2684,391.100000,-7.96186
2685,391.200000,-7.97117
2686,391.400000,-7.98034
2687,391.600000,-7.98937
2688,391.700000,-7.99822
2689,391.900000,-8.00687
2690,392.100000,-8.01541
2691,392.200000,-8.02383
2692,392.400000,-8.03221
2693,392.600000,-8.04053
2694,392.700000,-8.04881
2695,392.900000,-8.05697
2696,393.100000,-8.06494
2697,393.200000,-8.0727
2698,393.400000,-8.08027
2699,393.500000,-8.08773
2700,393.700000,-8.09512
2701,393.900000,-8.10242
2702,394.000000,-8.10964
2703,394.200000,-8.11673
2704,394.400000,-8.12371
2705,394.500000,-8.13059
2706,394.700000,-8.13738
2707,394.900000,-8.14407
2708,395.000000,-8.15067
2709,395.200000,-8.15722
2710,395.300000,-8.1637
2711,395.500000,-8.17001
2712,395.700000,-8.17609
2713,395.800000,-8.18196
2714,396.000000,-8.18772
2715,396.200000,-8.19343
2716,396.300000,-8.19908
2717,396.500000,-8.2046
2718,396.700000,-8.20999
2719,396.800000,-8.21529
2720,397.000000,-8.22054
2721,397.200000,-8.22576
2722,397.300000,-8.23096
2723,397.500000,-8.23611
2724,397.700000,-8.24125
2725,397.800000,-8.24634
2726,398.000000,-8.25141
2727,398.100000,-8.25641
2728,398.300000,-8.26128
2729,398.500000,-8.26603
2730,398.600000,-8.27074
2731,398.800000,-8.27541
2732,399.000000,-8.27999
2733,399.100000,-8.28445
2734,399.300000,-8.28879
2735,399.400000,-8.29307
2736,399.600000,-8.29732
2737,399.800000,-8.30153
2738,399.900000,-8.30569
2739,400.100000,-8.30972
2740,400.300000,-8.31365
2741,400.400000,-8.31746
2742,400.600000,-8.32122
2743,400.700000,-8.32495
2744,400.900000,-8.32861
2745,401.100000,-8.33219
2746,401.200000,-8.33572
2747,401.400000,-8.33917
2748,401.600000,-8.34247
2749,401.700000,-8.3457
2750,401.900000,-8.34883
2751,402.100000,-8.35189
2752,402.200000,-8.35499
2753,402.400000,-8.35813
2754,402.500000,-8.3613
2755,402.700000,-8.36443
2756,402.900000,-8.3675
2757,403.000000,-8.37056
2758,403.200000,-8.37356
2759,403.400000,-8.37649
2760,403.500000,-8.37933
2761,403.700000,-8.38205
2762,403.900000,-8.38465
2763,404.000000,-8.38714
2764,404.200000,-8.38952
2765,404.400000,-8.39177
2766,404.500000,-8.39393
2767,404.700000,-8.39602
2768,404.800000,-8.39812
2769,405.000000,-8.40025
2770,405.200000,-8.40242
2771,405.300000,-8.40457
2772,405.500000,-8.40666
2773,405.700000,-8.4087
2774,405.800000,-8.41072
2775,406.000000,-8.4127
2776,406.200000,-8.41461
2777,406.300000,-8.41645
2778,406.500000,-8.41827
2779,406.600000,-8.4201
2780,406.800000,-8.42189
2781,407.000000,-8.42364
2782,407.100000,-8.42539
2783,407.300000,-8.42717
2784,407.500000,-8.42895
2785,407.600000,-8.43068
2786,407.800000,-8.43235
2787,408.000000,-8.43397
2788,408.100000,-8.43558
2789,408.300000,-8.43716
2790,408.400000,-8.43872
2791,408.600000,-8.44022
2792,408.800000,-8.44164
2793,408.900000,-8.44298
2794,409.100000,-8.44428
2795,409.300000,-8.44551
2796,409.400000,-8.44672
2797,409.600000,-8.44796
2798,409.700000,-8.44925
2799,409.900000,-8.45053
2800,410.100000,-8.45177
2801,410.200000,-8.45298
2802,410.400000,-8.45415
2803,410.600000,-8.45528
2804,410.800000,-8.45636
2805,410.900000,-8.4574
2806,411.100000,-8.45848
2807,411.300000,-8.45966
2808,411.400000,-8.46088
2809,411.600000,-8.46197
2810,411.800000,-8.46302
2811,411.900000,-8.46398
2812,412.100000,-8.46488
2813,412.200000,-8.46569
2814,412.400000,-8.46648
2815,412.600000,-8.46728
2816,412.700000,-8.46809
2817,412.900000,-8.46889
2818,413.100000,-8.46965
2819,413.200000,-8.47035
2820,413.400000,-8.47107
2821,413.600000,-8.47178
2822,413.700000,-8.47245
2823,413.900000,-8.47307
2824,414.100000,-8.4737
2825,414.200000,-8.47433
2826,414.400000,-8.47495
2827,414.600000,-8.4755
2828,414.700000,-8.476
2829,414.900000,-8.4765
2830,415.000000,-8.47705
2831,415.200000,-8.47764
2832,415.400000,-8.47829
2833,415.500000,-8.47895
2834,415.700000,-8.47956
2835,415.900000,-8.48014
2836,416.000000,-8.48072
2837,416.200000,-8.48129
2838,416.400000,-8.48188
2839,416.500000,-8.48245
2840,416.700000,-8.48302
2841,416.900000,-8.4836
2842,417.000000,-8.48421
2843,417.200000,-8.48483
2844,417.300000,-8.48544
2845,417.500000,-8.48598
2846,417.700000,-8.48645
2847,417.800000,-8.4869
2848,418.000000,-8.48736
2849,418.200000,-8.48784
2850,418.300000,-8.48832
2851,418.500000,-8.48875
2852,418.700000,-8.48913
2853,418.800000,-8.48946
2854,419.000000,-8.48975
2855,419.100000,-8.49003
2856,419.300000,-8.49028
2857,419.500000,-8.49055
2858,419.700000,-8.49081
2859,419.800000,-8.49107
2860,420.000000,-8.49135
2861,420.200000,-8.49165
2862,420.300000,-8.49192
2863,420.500000,-8.49217
2864,420.600000,-8.49242
2865,420.800000,-8.49269
2866,421.000000,-8.493
2867,421.100000,-8.49338
2868,421.300000,-8.49381
2869,421.500000,-8.49423
2870,421.600000,-8.49464
2871,421.800000,-8.495
2872,422.000000,-8.49532
2873,422.100000,-8.49563
2874,422.300000,-8.49593
2875,422.500000,-8.4962
2876,422.600000,-8.49643
2877,422.800000,-8.49665
2878,422.900000,-8.49688
2879,423.100000,-8.49712
2880,423.300000,-8.49733
2881,423.500000,-8.4975
2882,423.600000,-8.49765
2883,423.800000,-8.49782
2884,423.900000,-8.49803
2885,424.100000,-8.4983
2886,424.300000,-8.49858
2887,424.400000,-8.49882
2888,424.600000,-8.49904
2889,424.800000,-8.49926
2890,424.900000,-8.49947
2891,425.100000,-8.49965
2892,425.300000,-8.49981
2893,425.400000,-8.49998
2894,425.600000,-8.50016
2895,425.800000,-8.50035
2896,425.900000,-8.50058
2897,426.100000,-8.50088
2898,426.200000,-8.50119
2899,426.400000,-8.50146
2900,426.600000,-8.50169
2901,426.700000,-8.50192
2902,426.900000,-8.50213
2903,427.100000,-8.50234
2904,427.200000,-8.50251
2905,427.400000,-8.50262
2906,427.600000,-8.50273
2907,427.800000,-8.50282
2908,427.900000,-8.50285
2909,428.100000,-8.50284
2910,428.300000,-8.50278
2911,428.400000,-8.50272
2912,428.600000,-8.50266
2913,428.800000,-8.50267
2914,428.900000,-8.50272
2915,429.100000,-8.5028
2916,429.300000,-8.50286
2917,429.400000,-8.50291
2918,429.600000,-8.50296
2919,429.700000,-8.50305
2920,429.900000,-8.50315
2921,430.100000,-8.50323
2922,430.200000,-8.50331
2923,430.400000,-8.50339
2924,430.600000,-8.50349
2925,430.700000,-8.50361
2926,430.900000,-8.50376
2927,431.100000,-8.50392
2928,431.200000,-8.50409
2929,431.400000,-8.50424
2930,431.600000,-8.50435
2931,431.700000,-8.50441
2932,431.900000,-8.50442
2933,432.100000,-8.50443
2934,432.200000,-8.50443
2935,432.400000,-8.50446
2936,432.600000,-8.50446
2937,432.700000,-8.50448
2938,432.900000,-8.5045
2939,433.000000,-8.50456
2940,433.200000,-8.50471
2941,433.400000,-8.50496
2942,433.500000,-8.50522
2943,433.700000,-8.50548
2944,433.900000,-8.50568
2945,434.000000,-8.50582
2946,434.200000,-8.50591
2947,434.400000,-8.50599
2948,434.500000,-8.50604
2949,434.700000,-8.50608
2950,434.900000,-8.50608
2951,435.000000,-8.50608
2952,435.200000,-8.50613
2953,435.300000,-8.50621
2954,435.500000,-8.50633
2955,435.700000,-8.50644
2956,435.800000,-8.50655
2957,436.000000,-8.50666
2958,436.200000,-8.5068
2959,436.300000,-8.50691
2960,436.500000,-8.50702
2961,436.700000,-8.50711
2962,436.800000,-8.50719
2963,437.000000,-8.50725
2964,437.200000,-8.50732
2965,437.300000,-8.50737
2966,437.500000,-8.50738
2967,437.700000,-8.50735
2968,437.800000,-8.50729
2969,438.000000,-8.50724
2970,438.200000,-8.50722
2971,438.300000,-8.50721
2972,438.500000,-8.50719
2973,438.700000,-8.50717
2974,438.800000,-8.50717
2975,439.000000,-8.50718
2976,439.100000,-8.5072
2977,439.300000,-8.50718
2978,439.500000,-8.50713
2979,439.600000,-8.50711
2980,439.800000,-8.50713
2981,440.000000,-8.50717
2982,440.100000,-8.50729
2983,440.300000,-8.50748
2984,440.500000,-8.50766
2985,440.600000,-8.50778
2986,440.800000,-8.50786
2987,441.000000,-8.50789
2988,441.100000,-8.50794
2989,441.300000,-8.50798
2990,441.500000,-8.50797
2991,441.600000,-8.5079
2992,441.800000,-8.5078
2993,442.000000,-8.50774
2994,442.100000,-8.50771
2995,442.300000,-8.50773
2996,442.500000,-8.50775
2997,442.600000,-8.50774
2998,442.800000,-8.50771
2999,443.000000,-8.50767
3000,443.100000,-8.50764
3001,443.300000,-8.50756
3002,443.500000,-8.50743
3003,443.600000,-8.50727
3004,443.800000,-8.50708
3005,444.000000,-8.50689
3006,444.100000,-8.50671
3007,444.300000,-8.50656
3008,444.500000,-8.50644
3009,444.600000,-8.50636
3010,444.800000,-8.50634
3011,445.000000,-8.50635
3012,445.100000,-8.50633
3013,445.300000,-8.50627
3014,445.500000,-8.50619
3015,445.600000,-8.50608
3016,445.800000,-8.50599
3017,446.000000,-8.50588
3018,446.100000,-8.50582
3019,446.300000,-8.50578
3020,446.400000,-8.50575
3021,446.600000,-8.50571
3022,446.800000,-8.50566
3023,446.900000,-8.50561
3024,447.100000,-8.50561
3025,447.300000,-8.50561
3026,447.400000,-8.5056
3027,447.600000,-8.50557
3028,447.800000,-8.50559
3029,447.900000,-8.50562
3030,448.100000,-8.50563
3031,448.300000,-8.50561
3032,448.400000,-8.50559
3033,448.600000,-8.5056
3034,448.800000,-8.50563
3035,448.900000,-8.50567
3036,449.100000,-8.50569
3037,449.300000,-8.50563
3038,449.400000,-8.50557
3039,449.600000,-8.50552
3040,449.800000,-8.50549
3041,449.900000,-8.50549
3042,450.100000,-8.50552
3043,450.300000,-8.50559
3044,450.400000,-8.50569
3045,450.600000,-8.50582
3046,450.700000,-8.50597
3047,450.900000,-8.50607
3048,451.100000,-8.50615
3049,451.200000,-8.50624
3050,451.400000,-8.50634
3051,451.600000,-8.50641
3052,451.800000,-8.50643
3053,451.900000,-8.50643
3054,452.100000,-8.50641
3055,452.300000,-8.50633
3056,452.400000,-8.50624
3057,452.600000,-8.5062
3058,452.800000,-8.50621
3059,452.900000,-8.50621
3060,453.100000,-8.50621
3061,453.300000,-8.50617
3062,453.400000,-8.5061
3063,453.600000,-8.50603
3064,453.800000,-8.506
3065,453.900000,-8.506
3066,454.100000,-8.50606
3067,454.300000,-8.50612
3068,454.400000,-8.50621
3069,454.600000,-8.50632
3070,454.800000,-8.50648
3071,454.900000,-8.50665
3072,455.100000,-8.50684
3073,455.300000,-8.50702
3074,455.500000,-8.50714
3075,455.600000,-8.50716
3076,455.800000,-8.50717
3077,455.900000,-8.50721
3078,456.100000,-8.50732
3079,456.300000,-8.50742
3080,456.400000,-8.50752
3081,456.600000,-8.50758
3082,456.800000,-8.50757
3083,456.900000,-8.50749
3084,457.100000,-8.50744
3085,457.300000,-8.50743
3086,457.500000,-8.50744
3087,457.600000,-8.50749
3088,457.800000,-8.50752
3089,458.000000,-8.50756
3090,458.100000,-8.50759
3091,458.300000,-8.50759
3092,458.500000,-8.50753
3093,458.600000,-8.50749
3094,458.800000,-8.50749
3095,459.000000,-8.50757
3096,459.100000,-8.50767
3097,459.300000,-8.50779
3098,459.500000,-8.50789
3099,459.600000,-8.50798
3100,459.800000,-8.50811
3101,460.000000,-8.50826
3102,460.100000,-8.50844
3103,460.300000,-8.5086
3104,460.500000,-8.5087
3105,460.600000,-8.50875
3106,460.800000,-8.5088
3107,461.000000,-8.50885
3108,461.100000,-8.50889
3109,461.300000,-8.50895
3110,461.500000,-8.509
3111,461.600000,-8.50902
3112,461.800000,-8.50902
3113,462.000000,-8.50902
3114,462.100000,-8.50898
3115,462.300000,-8.50895
3116,462.500000,-8.50891
3117,462.600000,-8.50885
3118,462.800000,-8.50878
3119,463.000000,-8.50873
3120,463.100000,-8.50867
3121,463.300000,-8.50862
3122,463.500000,-8.50859
3123,463.600000,-8.50865
3124,463.800000,-8.50881
3125,464.000000,-8.50904
3126,464.100000,-8.50923
3127,464.300000,-8.50937
3128,464.500000,-8.50946
3129,464.600000,-8.5095
3130,464.800000,-8.50951
3131,465.000000,-8.50955
3132,465.100000,-8.50964
3133,465.300000,-8.50971
3134,465.500000,-8.50974
3135,465.600000,-8.50976
3136,465.800000,-8.50979
3137,466.000000,-8.50978
3138,466.100000,-8.50967
3139,466.300000,-8.50956
3140,466.500000,-8.50948
3141,466.600000,-8.50942
3142,466.800000,-8.50939
3143,467.000000,-8.50937
3144,467.100000,-8.50936
3145,467.300000,-8.50936
3146,467.500000,-8.5094
3147,467.700000,-8.50941
3148,467.800000,-8.50939
3149,468.000000,-8.50933
3150,468.200000,-8.50927
3151,468.300000,-8.50923
3152,468.500000,-8.50919
3153,468.600000,-8.50915
3154,468.800000,-8.50912
3155,469.000000,-8.50912
3156,469.100000,-8.50915
3157,469.300000,-8.5092
3158,469.500000,-8.50927
3159,469.600000,-8.50931
3160,469.800000,-8.50932
3161,470.000000,-8.50928
3162,470.200000,-8.50924
3163,470.300000,-8.5092
3164,470.500000,-8.50917
3165,470.700000,-8.50914
3166,470.800000,-8.50911
3167,471.000000,-8.50908
3168,471.100000,-8.50907
3169,471.300000,-8.50908
3170,471.500000,-8.50911
3171,471.700000,-8.50911
3172,471.800000,-8.50915
3173,472.000000,-8.50921
3174,472.200000,-8.50926
3175,472.300000,-8.50924
3176,472.500000,-8.50918
3177,472.700000,-8.50915
3178,472.800000,-8.50916
3179,473.000000,-8.50919
3180,473.100000,-8.50925
3181,473.300000,-8.50931
3182,473.500000,-8.50941
3183,473.600000,-8.50955
3184,473.800000,-8.50972
3185,474.000000,-8.50989
3186,474.100000,-8.51003
3187,474.300000,-8.51013
3188,474.500000,-8.51023
3189,474.600000,-8.5103
3190,474.800000,-8.51037
3191,475.000000,-8.51041
3192,475.100000,-8.5104
3193,475.300000,-8.51038
3194,475.500000,-8.51038
3195,475.600000,-8.51038
3196,475.800000,-8.5104
3197,475.900000,-8.51043
3198,476.100000,-8.51047
3199,476.300000,-8.51049
3200,476.400000,-8.51051
3201,476.600000,-8.51056
3202,476.800000,-8.5106
3203,476.900000,-8.51058
3204,477.100000,-8.51052
3205,477.300000,-8.51043
3206,477.500000,-8.51037
3207,477.600000,-8.51031
3208,477.800000,-8.51026
3209,477.900000,-8.51021
3210,478.100000,-8.51015
3211,478.300000,-8.51013
3212,478.400000,-8.51015
3213,478.600000,-8.51018
3214,478.800000,-8.51019
3215,478.900000,-8.5101
3216,479.100000,-8.50984
3217,479.300000,-8.50942
3218,479.500000,-8.50889
3219,479.600000,-8.50831
3220,479.800000,-8.50773
3221,480.000000,-8.50718
3222,480.100000,-8.50668
3223,480.300000,-8.50627
3224,480.500000,-8.50599
3225,480.600000,-8.50579
3226,480.800000,-8.50568
3227,480.900000,-8.50558
3228,481.100000,-8.50545
3229,481.300000,-8.50528
3230,481.400000,-8.50512
3231,481.600000,-8.50501
3232,481.800000,-8.50498
3233,482.000000,-8.50494
3234,482.100000,-8.50487
3235,482.300000,-8.50478
3236,482.400000,-8.5047
3237,482.600000,-8.50466
3238,482.800000,-8.50468
3239,482.900000,-8.50477
3240,483.100000,-8.50493
3241,483.300000,-8.50505
3242,483.400000,-8.50514
3243,483.600000,-8.50518
3244,483.800000,-8.50522
3245,483.900000,-8.50527
3246,484.100000,-8.50537
3247,484.300000,-8.50549
3248,484.400000,-8.50566
3249,484.600000,-8.50579
3250,484.700000,-8.50584
3251,484.900000,-8.50577
3252,485.100000,-8.5056
3253,485.200000,-8.50543
3254,485.400000,-8.50525
3255,485.600000,-8.5051
3256,485.700000,-8.50497
3257,485.900000,-8.50484
3258,486.100000,-8.50472
3259,486.200000,-8.5046
3260,486.400000,-8.5045
3261,486.600000,-8.50443
3262,486.700000,-8.50442
3263,486.900000,-8.50444
3264,487.100000,-8.50449
3265,487.200000,-8.50459
3266,487.400000,-8.50474
3267,487.600000,-8.5049
3268,487.700000,-8.50506
3269,487.900000,-8.50519
3270,488.100000,-8.50531
3271,488.200000,-8.50544
3272,488.400000,-8.50558
3273,488.600000,-8.50573
3274,488.700000,-8.50583
3275,488.900000,-8.50588
3276,489.100000,-8.50596
3277,489.200000,-8.50606
3278,489.400000,-8.50621
3279,489.600000,-8.50633
3280,489.700000,-8.50643
3281,489.900000,-8.50653
3282,490.100000,-8.50664
3283,490.200000,-8.50669
3284,490.400000,-8.50675
3285,490.600000,-8.50679
3286,490.700000,-8.50681
3287,490.900000,-8.50679
3288,491.100000,-8.50678
3289,491.200000,-8.50685
3290,491.400000,-8.50699
3291,491.600000,-8.50718
3292,491.800000,-8.50747
3293,491.900000,-8.50791
3294,492.100000,-8.50842
3295,492.300000,-8.50901
3296,492.400000,-8.50961
3297,492.600000,-8.5102
3298,492.800000,-8.51075
3299,492.900000,-8.51124
3300,493.100000,-8.51167
3301,493.300000,-8.51207
3302,493.400000,-8.51245
3303,493.600000,-8.51278
3304,493.800000,-8.51304
3305,493.900000,-8.51319
3306,494.100000,-8.51329
3307,494.300000,-8.51333
3308,494.400000,-8.51335
3309,494.600000,-8.51338
3310,494.800000,-8.5134
3311,494.900000,-8.51335
3312,495.100000,-8.51324
3313,495.300000,-8.51314
3314,495.400000,-8.51312
3315,495.600000,-8.51316
3316,495.800000,-8.51325
3317,495.900000,-8.51332
3318,496.100000,-8.5133
3319,496.300000,-8.51321
3320,496.400000,-8.51311
3321,496.600000,-8.51303
3322,496.800000,-8.51299
3323,496.900000,-8.51297
3324,497.100000,-8.51296
3325,497.300000,-8.51295
3326,497.400000,-8.51297
3327,497.600000,-8.51305
3328,497.800000,-8.51319
3329,497.900000,-8.51336
3330,498.100000,-8.51355
3331,498.300000,-8.51374
3332,498.400000,-8.51396
3333,498.600000,-8.51419
3334,498.800000,-8.51443
3335,498.900000,-8.51464
3336,499.100000,-8.51478
3337,499.300000,-8.51485
3338,499.400000,-8.51488
3339,499.600000,-8.51492
3340,499.800000,-8.51499
3341,499.900000,-8.51502
3342,500.100000,-8.515
3343,500.300000,-8.51495
3344,500.500000,-8.51494
3345,500.600000,-8.51499
3346,500.800000,-8.51503
3347,501.000000,-8.51509
3348,501.100000,-8.51516
3349,501.300000,-8.51527